#Lambda        Dielectric Constant          Refractive Index
# [nm]        [Real]        [Imag]        [Real]        [Imag]
   10.0      0.869589      0.008891      0.932534      0.004765
   15.0      0.781339      0.235226      0.899084      0.130281
   20.0      0.731640      0.371782      0.881000      0.211000
   25.0      0.702863      0.483924      0.879661      0.276234
   30.0      0.677380      0.637017      0.896446      0.355295
   35.0      0.639774      0.854910      0.925496      0.460228
   40.0      0.583468      0.995376      0.932000      0.534000
   45.0      0.524281      0.949057      0.897805      0.528708
   50.0      0.558775      0.904131      0.900333      0.502041
   55.0      0.746837      1.042200      1.001655      0.516917
   60.0      0.920925      1.221020      1.106872      0.551574
   65.0      0.922383      1.283151      1.120872      0.575004
   70.0      0.855532      1.334223      1.104663      0.603891
   75.0      0.861709      1.492180      1.135813      0.654158
   80.0      0.967323      1.661164      1.202000      0.691000
   85.0      1.151224      1.724265      1.270369      0.680594
   90.0      1.316950      1.694178      1.315833      0.643779
   95.0      1.380287      1.616490      1.323718      0.609674
  100.0      1.381334      1.538754      1.313230      0.585865
  105.0      1.375509      1.495931      1.305466      0.573278
  110.0      1.355195      1.470647      1.295192      0.567735
  115.0      1.306503      1.440140      1.274784      0.564716
  120.0      1.253483      1.412439      1.253380      0.563452
  125.0      1.217376      1.395597      1.239018      0.563358
  130.0      1.170237      1.366980      1.218564      0.560850
  135.0      1.080079      1.309074      1.178225      0.555079
  140.0      0.947937      1.255521      1.122750      0.559134
  145.0      0.784179      1.244575      1.061666      0.586422
  150.0      0.603494      1.281765      1.005063      0.637679
  155.0      0.422515      1.362348      0.962071      0.708393
  160.0      0.261342      1.473209      0.937402      0.785747
  165.0      0.134084      1.600285      0.932297      0.857722
  170.0      0.027419      1.734078      0.938532      0.923817
  175.0     -0.073915      1.868457      0.947824      0.985886
  180.0     -0.165525      2.006189      0.961119      1.043700
  185.0     -0.241088      2.152273      0.980879      1.097134
  190.0     -0.306219      2.311747      1.006403      1.148557
  195.0     -0.363123      2.485597      1.036603      1.198794
  200.0     -0.388416      2.658560      1.072000      1.240000
  205.0     -0.363672      2.813659      1.111989      1.265231
  210.0     -0.315898      2.943295      1.149839      1.279833
  215.0     -0.275508      3.044422      1.179315      1.290709
  220.0     -0.241124      3.122827      1.202296      1.298707
  225.0     -0.207042      3.187164      1.222053      1.304074
  230.0     -0.182037      3.248725      1.239312      1.310698
  235.0     -0.173368      3.316636      1.254558      1.321799
  240.0     -0.167751      3.388715      1.269864      1.334271
  245.0     -0.149880      3.460503      1.287217      1.344187
  250.0     -0.116914      3.529729      1.306663      1.350671
  255.0     -0.068163      3.594476      1.327934      1.353390
  260.0      0.000926      3.652058      1.351453      1.351127
  265.0      0.094982      3.700078      1.377736      1.342754
  270.0      0.215069      3.738065      1.406987      1.328375
  275.0      0.359737      3.761259      1.438323      1.307609
  280.0      0.521034      3.745830      1.466820      1.276890
  285.0      0.695811      3.667597      1.488458      1.231836
  290.0      0.906633      3.520045      1.506860      1.167982
  295.0      1.161803      3.288154      1.522759      1.079758
  300.0      1.386874      2.905221      1.517685      0.957250
  305.0      1.482405      2.334650      1.464800      0.799662
  310.0      1.331720      1.711962      1.323000      0.647000
  315.0      0.879574      1.192689      1.071777      0.546439
  320.0      0.333680      0.840301      0.787290      0.533031
  325.0     -0.096951      0.672396      0.553887      0.624921
  330.0     -0.461069      0.615139      0.392018      0.784755
  335.0     -0.842465      0.588654      0.300691      0.964448
  340.0     -1.207343      0.580329      0.257049      1.128505
  345.0     -1.512609      0.590143      0.235478      1.254357
  350.0     -1.795583      0.601158      0.221216      1.358564
  355.0     -2.092846      0.598805      0.205477      1.459883
  360.0     -2.357621      0.594895      0.192530      1.546732
  365.0     -2.539776      0.604324      0.188144      1.605230
  370.0     -2.659125      0.627959      0.191025      1.642634
  375.0     -2.757348      0.660750      0.197444      1.672460
  380.0     -2.893629      0.688017      0.200985      1.712131
  385.0     -3.108508      0.696739      0.196618      1.773271
  390.0     -3.350437      0.690167      0.187531      1.840392
  395.0     -3.564271      0.677404      0.178571      1.897038
  400.0     -3.772571      0.674700      0.173000      1.950000
  405.0     -4.006891      0.693377      0.172398      2.008760
  410.0     -4.257063      0.717887      0.173212      2.070324
  415.0     -4.505248      0.730460      0.171585      2.129499
  420.0     -4.744635      0.731304      0.167589      2.184775
  425.0     -4.972181      0.726187      0.162525      2.235833
  430.0     -5.188878      0.725147      0.158686      2.283440
  435.0     -5.398434      0.735400      0.157704      2.328841
  440.0     -5.611380      0.748611      0.157576      2.374114
  445.0     -5.837394      0.754836      0.155936      2.421065
  450.0     -6.075929      0.753241      0.152614      2.469573
  455.0     -6.323174      0.745690      0.148092      2.518890
  460.0     -6.572495      0.735734      0.143259      2.567694
  465.0     -6.817769      0.726867      0.138960      2.614793
  470.0     -7.057737      0.720657      0.135443      2.660078
  475.0     -7.292557      0.718108      0.132796      2.703734
  480.0     -7.523196      0.719877      0.131070      2.746024
  485.0     -7.752013      0.726152      0.130237      2.787414
  490.0     -7.986145      0.735592      0.129985      2.829093
  495.0     -8.232662      0.746634      0.129970      2.872224
  500.0     -8.493606      0.758365      0.130000      2.917147
  505.0     -8.767876      0.770190      0.129967      2.963683
  510.0     -9.046842      0.782150      0.129933      3.010405
  515.0     -9.321170      0.794349      0.129981      3.055767
  520.0     -9.586239      0.806520      0.130105      3.099005
  525.0     -9.840333      0.818156      0.130242      3.139837
  530.0    -10.088634      0.828156      0.130199      3.179123
  535.0    -10.337663      0.835336      0.129762      3.217942
  540.0    -10.592380      0.838781      0.128769      3.257120
  545.0    -10.856196      0.838109      0.127144      3.297226
  550.0    -11.127874      0.834792      0.125115      3.338073
  555.0    -11.405034      0.830788      0.122989      3.379285
  560.0    -11.685368      0.828158      0.121090      3.420496
  565.0    -11.966795      0.828691      0.119697      3.461379
  570.0    -12.248076      0.833001      0.118900      3.501761
  575.0    -12.528310      0.841246      0.118717      3.541531
  580.0    -12.807116      0.852931      0.119058      3.580668
  585.0    -13.084196      0.867433      0.119814      3.619169
  590.0    -13.359075      0.884282      0.120901      3.657003
  595.0    -13.631738      0.903075      0.122244      3.694189
  600.0    -13.904195      0.923527      0.123788      3.730987
  605.0    -14.178981      0.945385      0.125486      3.767717
  610.0    -14.458696      0.968415      0.127290      3.804708
  615.0    -14.745947      0.992385      0.129156      3.842288
  620.0    -15.043302      1.017059      0.131037      3.880781
  625.0    -15.352579      1.042138      0.132886      3.920414
  630.0    -15.672621      1.067076      0.134647      3.961028
  635.0    -16.001544      1.091275      0.136263      4.002367
  640.0    -16.337518      1.114173      0.137683      4.044186
  645.0    -16.678694      1.135185      0.138851      4.086235
  650.0    -17.023099      1.153595      0.139698      4.128245
  655.0    -17.368936      1.168880      0.140177      4.169976
  660.0    -17.715249      1.181417      0.140335      4.211318
  665.0    -18.061364      1.191880      0.140252      4.252207
  670.0    -18.406884      1.201220      0.140038      4.292621
  675.0    -18.751457      1.210451      0.139809      4.332548
  680.0    -19.094636      1.220552      0.139677      4.371960
  685.0    -19.435980      1.232461      0.139751      4.410829
  690.0    -19.775177      1.246996      0.140125      4.449142
  695.0    -20.112186      1.264649      0.140856      4.486910
  700.0    -20.447907      1.284722      0.141866      4.524231
  705.0    -20.783459      1.306242      0.143046      4.561225
  710.0    -21.119880      1.328338      0.144297      4.598004
  715.0    -21.458199      1.350153      0.145523      4.634678
  720.0    -21.799478      1.370789      0.146624      4.671361
  725.0    -22.144773      1.389353      0.147498      4.708167
  730.0    -22.495085      1.405022      0.148054      4.745204
  735.0    -22.851203      1.417231      0.148227      4.782555
  740.0    -23.213127      1.426387      0.148062      4.820216
  745.0    -23.580670      1.433128      0.147627      4.858164
  750.0    -23.953684      1.438046      0.146989      4.896380
  755.0    -24.332028      1.441724      0.146211      4.934844
  760.0    -24.715548      1.444741      0.145356      4.973537
  765.0    -25.104092      1.447689      0.144489      5.012438
  770.0    -25.497515      1.451213      0.143680      5.051528
  775.0    -25.895667      1.455903      0.142994      5.090787
  780.0    -26.298362      1.462093      0.142467      5.130193
  785.0    -26.705400      1.469988      0.142119      5.169722
  790.0    -27.116546      1.479546      0.141942      5.209349
  795.0    -27.531560      1.490677      0.141924      5.249048
  800.0    -27.950210      1.503342      0.142056      5.288795
  805.0    -28.372264      1.517512      0.142333      5.328563
  810.0    -28.797485      1.533147      0.142746      5.368328
  815.0    -29.225636      1.550202      0.143289      5.408064
  820.0    -29.656501      1.568631      0.143952      5.447746
  825.0    -30.089847      1.588393      0.144728      5.487348
  830.0    -30.525374      1.609466      0.145612      5.526845
  835.0    -30.962725      1.631841      0.146601      5.566208
  840.0    -31.401402      1.655552      0.147696      5.605407
  845.0    -31.840876      1.680641      0.148901      5.644410
  850.0    -32.280644      1.707142      0.150217      5.683186
  855.0    -32.720207      1.735089      0.151647      5.721705
  860.0    -33.159050      1.764517      0.153192      5.759934
  865.0    -33.596663      1.795463      0.154856      5.797843
  870.0    -34.032574      1.827957      0.156639      5.835404
  875.0    -34.466285      1.862034      0.158544      5.872586
  880.0    -34.897168      1.897743      0.160575      5.909349
  885.0    -35.324709      1.935121      0.162734      5.945663
  890.0    -35.748973      1.974132      0.165016      5.981534
  895.0    -36.170357      2.014696      0.167413      6.016992
  900.0    -36.590009      2.056639      0.169907      6.052115
  905.0    -37.009231      2.099769      0.172478      6.086992
  910.0    -37.429173      2.143912      0.175110      6.121702
  915.0    -37.850960      2.188896      0.177785      6.156322
  920.0    -38.275749      2.234547      0.180485      6.190931
  925.0    -38.704710      2.280689      0.183193      6.225611
  930.0    -39.139025      2.327145      0.185891      6.260441
  935.0    -39.579858      2.373740      0.188561      6.295502
  940.0    -40.028287      2.420302      0.191185      6.330867
  945.0    -40.485451      2.466658      0.193747      6.366615
  950.0    -40.952820      2.512618      0.196227      6.402846
  955.0    -41.431485      2.558010      0.198607      6.439635
  960.0    -41.920703      2.602738      0.200883      6.476939
  965.0    -42.419013      2.646734      0.203055      6.514669
  970.0    -42.923922      2.689973      0.205131      6.552670
  975.0    -43.432741      2.732437      0.207118      6.590776
  980.0    -43.943023      2.774100      0.209023      6.628834
  985.0    -44.452367      2.814932      0.210854      6.666695
  990.0    -44.958302      2.854907      0.212617      6.704205
  995.0    -45.458348      2.893999      0.214319      6.741211
 1000.0    -45.950059      2.932182      0.215967      6.777561
 1005.0    -46.430980      2.969430      0.217568      6.813102
 1010.0    -46.898593      3.005714      0.219130      6.847678
 1015.0    -47.350418      3.041008      0.220660      6.881135
 1020.0    -47.784203      3.075291      0.222163      6.913333
 1025.0    -48.197543      3.108539      0.223647      6.944122
 1030.0    -48.587186      3.140701      0.225119      6.973301
 1035.0    -48.951009      3.171761      0.226587      7.000738
 1040.0    -49.292247      3.201870      0.228052      7.026632
 1045.0    -49.616010      3.231241      0.229514      7.051296
 1050.0    -49.929555      3.260150      0.230970      7.075176
 1055.0    -50.240542      3.288889      0.232418      7.098745
 1060.0    -50.556105      3.317732      0.233855      7.122442
 1065.0    -50.883278      3.346950      0.235280      7.146698
 1070.0    -51.229238      3.376820      0.236689      7.171955
 1075.0    -51.601186      3.407617      0.238081      7.198657
 1080.0    -52.006295      3.439617      0.239454      7.227244
 1085.0    -52.451725      3.473095      0.240805      7.258157
 1090.0    -52.944616      3.508325      0.242133      7.291836
 1095.0    -53.492132      3.545584      0.243435      7.328721
 1100.0    -54.101543      3.585148      0.244708      7.369260
 1105.0    -54.780041      3.627294      0.245951      7.413894
 1110.0    -55.534415      3.672288      0.247161      7.463042
 1115.0    -56.371730      3.720404      0.248337      7.517138
 1120.0    -57.300575      3.771948      0.249474      7.576711
 1125.0    -58.328373      3.827201      0.250570      7.642217
 1130.0    -59.456364      3.886310      0.251630      7.713732
 1135.0    -60.680384      3.949304      0.252667      7.791000
 1140.0    -61.980825      4.015876      0.253714      7.872814
 1145.0    -63.334829      4.085650      0.254807      7.957767
 1150.0    -64.721974      4.158301      0.255979      8.044603
 1155.0    -66.122286      4.233515      0.257263      8.132091
 1160.0    -67.515137      4.310964      0.258694      8.218962
 1165.0    -68.879778      4.390317      0.260304      8.303939
 1170.0    -70.195637      4.471246      0.262129      8.385755
 1175.0    -71.442174      4.553424      0.264201      8.463146
 1180.0    -72.598800      4.636525      0.266555      8.534845
 1185.0    -73.644917      4.720221      0.269223      8.599584
 1190.0    -74.559949      4.804183      0.272239      8.656096
 1195.0    -75.323315      4.888084      0.275638      8.703115
 1200.0    -75.914410      4.971597      0.279454      8.739372
 1205.0    -76.312643      5.054393      0.283719      8.763600
 1210.0    -76.497507      5.136148      0.288467      8.774537
 1215.0    -76.448440      5.216534      0.293732      8.770916
 1220.0    -76.144564      5.295216      0.299549      8.751454
 1225.0    -75.565215      5.371866      0.305951      8.714879
 1230.0    -74.690907      5.446180      0.312971      8.659987
 1235.0    -73.501348      5.517838      0.320641      8.585527
 1240.0    -71.971859      5.586420      0.329000      8.490000
 1245.0    -70.095400      5.651270      0.338026      8.373076
 1250.0    -67.939885      5.710889      0.347443      8.239357
 1255.0    -65.576681      5.763223      0.356932      8.093811
 1260.0    -63.016005      5.804838      0.366248      7.937927
 1265.0    -60.322893      5.833552      0.375080      7.776309
 1270.0    -57.842795      5.853581      0.382780      7.629481
 1275.0    -56.026336      5.871849      0.388594      7.523870
 1280.0    -55.464410      5.899709      0.391679      7.493585
 1285.0    -56.872802      5.950753      0.391001      7.579967
 1290.0    -61.326582      6.043092      0.384862      7.845595
 1295.0    -69.020299      6.182141      0.373091      8.301360
 1300.0    -76.267129      6.318016      0.362302      8.730159
 1305.0    -79.189240      6.397514      0.359404      8.903785
 1310.0    -77.026157      6.409463      0.365704      8.777619
 1315.0    -70.573633      6.363788      0.379719      8.398670
 1320.0    -63.734987      6.312761      0.394410      7.996876
 1325.0    -60.195680      6.305873      0.403141      7.789330
 1330.0    -59.662165      6.339152      0.406438      7.758820
 1335.0    -60.941638      6.396539      0.406447      7.835181
 1340.0    -63.223262      6.467101      0.404626      7.970757
 1345.0    -65.799350      6.541320      0.402250      8.123950
 1350.0    -67.992839      6.610214      0.400544      8.254903
 1355.0    -69.298707      6.667253      0.400434      8.333805
 1360.0    -69.869470      6.715179      0.401686      8.369303
 1365.0    -70.004983      6.758874      0.403813      8.378647
 1370.0    -69.936905      6.802499      0.406460      8.375041
 1375.0    -69.870799      6.849669      0.409309      8.370205
 1380.0    -69.976029      6.902530      0.412051      8.373964
 1385.0    -70.348149      6.960952      0.414438      8.392115
 1390.0    -70.823681      7.017168      0.416451      8.416248
 1395.0    -71.179186      7.061571      0.418123      8.434674
 1400.0    -71.210420      7.084825      0.419455      8.436793
 1405.0    -70.728027      7.078232      0.420443      8.412798
 1410.0    -69.582996      7.035379      0.421106      8.354963
 1415.0    -67.788733      6.958352      0.421515      8.264049
 1420.0    -65.967966      6.880956      0.421931      8.172670
 1425.0    -64.863114      6.843186      0.422649      8.119689
 1430.0    -65.086056      6.878066      0.423916      8.137103
 1435.0    -67.302731      7.021566      0.426002      8.259762
 1440.0    -72.525871      7.328398      0.429313      8.540804
 1445.0    -81.178709      7.821366      0.434021      9.002275
 1450.0    -90.979683      8.376911      0.439225      9.523562
 1455.0    -98.914590      8.831831      0.443732      9.945421
 1460.0   -101.743468      9.010719      0.446258     10.096743
 1465.0    -97.439442      8.803978      0.446005      9.870561
 1470.0    -89.053751      8.377442      0.444199      9.428345
 1475.0    -80.490642      7.943121      0.442402      8.976643
 1480.0    -73.988278      7.622291      0.441497      8.633894
 1485.0    -70.883246      7.487078      0.441999      8.470848
 1490.0    -70.571908      7.503755      0.443626      8.455623
 1495.0    -72.058924      7.617243      0.445933      8.535618
 1500.0    -74.722357      7.792908      0.448635      8.677977
 1505.0    -77.994005      7.998997      0.451464      8.852692
 1510.0    -81.147209      8.194834      0.454076      9.021392
 1515.0    -83.554164      8.345651      0.456189      9.150897
 1520.0    -85.140956      8.449238      0.457852      9.237145
 1525.0    -86.000070      8.513179      0.459210      9.284820
 1530.0    -86.335715      8.551680      0.460478      9.304476
 1535.0    -86.372852      8.580174      0.461882      9.307757
 1540.0    -86.307735      8.612395      0.463632      9.304797
 1545.0    -86.331366      8.661764      0.465934      9.305457
 1550.0    -86.642439      8.742160      0.469000      9.320000
 1555.0    -87.378621      8.861910      0.472922      9.355644
 1560.0    -88.425766      9.006684      0.477311      9.407018
 1565.0    -89.606923      9.156497      0.481659      9.465609
 1570.0    -90.745728      9.291403      0.485457      9.522938
 1575.0    -91.665894      9.391456      0.488199      9.570528
 1580.0    -92.190855      9.436686      0.489375      9.599890
 1585.0    -92.144105      9.407132      0.488478      9.602535
 1590.0    -91.349675      9.282900      0.485000      9.570000
 1595.0    -89.744768      9.058067      0.478810      9.499163
 1600.0    -87.718756      8.782537      0.471272      9.408234
 1605.0    -85.775770      8.520388      0.464128      9.320835
 1610.0    -84.426814      8.336577      0.459146      9.260910
 1615.0    -84.178202      8.295461      0.458077      9.252185
 1620.0    -85.510601      8.458123      0.462583      9.317184
 1625.0    -88.922196      8.887881      0.474386      9.479253
 1630.0    -95.006870      9.660277      0.495543      9.766213
 1635.0   -103.960489     10.800012      0.526723     10.187267
 1640.0   -114.291132     12.116209      0.562721     10.672659
 1645.0   -123.949533     13.346791      0.596390     11.126562
 1650.0   -130.344812     14.160469      0.618700     11.427822
 1655.0   -131.360890     14.286643      0.622271     11.477484
 1660.0   -127.322492     13.766689      0.608226     11.290717
 1665.0   -119.462071     12.758005      0.580845     10.925131
 1670.0   -110.202187     11.570114      0.548555     10.493975
 1675.0   -101.944665     10.509883      0.519709     10.109535
 1680.0    -95.818266      9.721439      0.498234      9.824594
 1685.0    -92.391163      9.277249      0.486104      9.665738
 1690.0    -91.262222      9.125868      0.481924      9.614251
 1695.0    -91.837845      9.191245      0.483629      9.642425
 1700.0    -93.723870      9.422816      0.489846      9.731872
 1705.0    -96.565071      9.775001      0.499340      9.866024
 1710.0    -99.962515     10.196665      0.510723     10.026266
 1715.0   -103.500190     10.634466      0.522548     10.193187
 1720.0   -106.737466     11.031795      0.533279     10.346240
 1725.0   -109.308714     11.341855      0.541647     10.468358
 1730.0   -111.172932     11.560354      0.547535     10.557531
 1735.0   -112.388911     11.696066      0.551179     10.616381
 1740.0   -113.090003     11.767515      0.553082     10.650988
 1745.0   -113.423576     11.795065      0.553795     10.668083
 1750.0   -113.518519     11.796682      0.553806     10.673536
 1755.0   -113.499653     11.789786      0.553586     10.673032
 1760.0   -113.494018     11.792001      0.553612     10.672364
 1765.0   -113.631610     11.821398      0.554375     10.677459
 1770.0   -114.052042     11.897622      0.556406     10.694663
 1775.0   -114.857395     12.034338      0.560074     10.728668
 1780.0   -115.990014     12.219723      0.565046     10.777138
 1785.0   -117.348654     12.435008      0.570796     10.835818
 1790.0   -118.817446     12.659123      0.576735     10.899805
 1795.0   -120.277242     12.870454      0.582260     10.964055
 1800.0   -121.610409     13.047527      0.586771     11.023596
 1805.0   -122.701792     13.169332      0.589681     11.073562
 1810.0   -123.444645     13.216587      0.590452     11.109430
 1815.0   -123.725537     13.168681      0.588508     11.126401
 1820.0   -123.395898     12.997957      0.583073     11.118226
 1825.0   -122.354448     12.686220      0.573641     11.080609
 1830.0   -120.724211     12.260177      0.560983     11.018506
 1835.0   -118.706599     11.762225      0.546317     10.940107
 1840.0   -116.592265     11.252615      0.531369     10.857283
 1845.0   -114.689159     10.795065      0.517964     10.782621
 1850.0   -113.285194     10.449306      0.507814     10.727877
 1855.0   -112.662814     10.273960      0.502599     10.704585
 1860.0   -113.102639     10.327188      0.503986     10.724206
 1865.0   -114.891669     10.668491      0.513678     10.798463
 1870.0   -118.344245     11.363199      0.533549     10.940189
 1875.0   -123.754390     12.472329      0.565347     11.161389
 1880.0   -131.307521     14.033827      0.610156     11.469656
 1885.0   -140.910312     16.026498      0.667355     11.861254
 1890.0   -151.463056     18.215659      0.730170     12.291537
 1895.0   -161.598005     20.309697      0.790186     12.704968
 1900.0   -169.881615     22.002775      0.838574     13.043344
 1905.0   -174.998294     23.014287      0.867237     13.253248
 1910.0   -176.170062     23.178768      0.871402     13.303081
 1915.0   -173.093846     22.432430      0.849237     13.180514
 1920.0   -166.828576     21.003042      0.807331     12.928492
 1925.0   -158.737858     19.183618      0.754159     12.602321
 1930.0   -150.041991     17.236602      0.697314     12.251493
 1935.0   -141.863546     15.403432      0.643782     11.921534
 1940.0   -135.077494     13.872110      0.598999     11.647929
 1945.0   -130.301774     12.775231      0.566799     11.455742
 1950.0   -127.373807     12.077220      0.546146     11.338380
 1955.0   -125.967112     11.707184      0.534983     11.282606
 1960.0   -125.880133     11.621144      0.532031     11.280246
 1965.0   -126.934175     11.780048      0.536153     11.324056
 1970.0   -128.917070     12.137632      0.546005     11.405434
 1975.0   -131.610524     12.646312      0.560204     11.515528
 1980.0   -134.805213     13.260437      0.577423     11.645851
 1985.0   -138.293453     13.934708      0.596345     11.787982
 1990.0   -141.865158     14.623309      0.615637     11.933404
 1995.0   -145.309800     15.280330      0.633966     12.073580
 2000.0   -148.417500     15.860000      0.650000     12.200000
 2005.0   -151.022026     16.326271      0.662694     12.305926
 2010.0   -153.131098     16.681854      0.672136     12.391674
 2015.0   -154.795943     16.939154      0.678701     12.459328
 2020.0   -156.067857     17.110592      0.682761     12.510972
 2025.0   -156.998127     17.208585      0.684690     12.548691
 2030.0   -157.637945     17.245527      0.684861     12.574567
 2035.0   -158.038556     17.233826      0.683647     12.590682
 2040.0   -158.251529     17.185973      0.681423     12.599133
 2045.0   -158.328215     17.114405      0.678564     12.602007
 2050.0   -158.318778     17.031244      0.675434     12.601344
 2055.0   -158.274191     16.948827      0.672404     12.599215
 2060.0   -158.249858     16.880653      0.669881     12.597873
 2065.0   -158.297502     16.839257      0.668241     12.599421
 2070.0   -158.449700     16.832139      0.667707     12.605181
 2075.0   -158.726821     16.863595      0.668402     12.615978
 2080.0   -159.119555     16.930121      0.670209     12.631428
 2085.0   -159.612565     17.026631      0.672962     12.650900
 2090.0   -160.196097     17.149505      0.676540     12.673992
 2095.0   -160.861420     17.295390      0.680831     12.700343
 2100.0   -161.598316     17.460546      0.685710     12.729532
 2105.0   -162.396285     17.641158      0.691051     12.761126
 2110.0   -163.245202     17.833503      0.696730     12.794706
 2115.0   -164.135033     18.033887      0.702623     12.829859
 2120.0   -165.055746     18.238632      0.708609     12.866172
 2125.0   -165.997214     18.444026      0.714564     12.903226
 2130.0   -166.948937     18.646191      0.720359     12.940588
 2135.0   -167.900712     18.841376      0.725869     12.977838
 2140.0   -168.843888     19.026487      0.730991     13.014618
 2145.0   -169.771939     19.199332      0.735654     13.050661
 2150.0   -170.685299     19.360660      0.739886     13.085988
 2155.0   -171.585930     19.511870      0.743738     13.120683
 2160.0   -172.474968     19.654010      0.747249     13.154797
 2165.0   -173.353394     19.788063      0.750455     13.188373
 2170.0   -174.222415     19.915108      0.753395     13.221464
 2175.0   -175.083277     20.036239      0.756111     13.254126
 2180.0   -175.937163     20.152525      0.758642     13.286410
 2185.0   -176.785248     20.265029      0.761026     13.318368
 2190.0   -177.628734     20.374831      0.763304     13.350054
 2195.0   -178.468818     20.483007      0.765515     13.381520
 2200.0   -179.306651     20.590597      0.767698     13.412816
 2205.0   -180.143411     20.698665      0.769891     13.443995
 2210.0   -180.980435     20.808393      0.772139     13.475115
 2215.0   -181.818891     20.920837      0.774480     13.506229
 2220.0   -182.659110     21.036410      0.776931     13.537352
 2225.0   -183.501081     21.155266      0.779496     13.568487
 2230.0   -184.344253     21.277144      0.782167     13.599614
 2235.0   -185.187972     21.401706      0.784932     13.630708
 2240.0   -186.031708     21.528709      0.787782     13.661749
 2245.0   -186.874955     21.657925      0.790710     13.692720
 2250.0   -187.717171     21.789104      0.793707     13.723601
 2255.0   -188.557810     21.921989      0.796765     13.754371
 2260.0   -189.396336     22.056330      0.799874     13.785011
 2265.0   -190.232215     22.191880      0.803026     13.815501
 2270.0   -191.064901     22.328387      0.806212     13.845822
 2275.0   -191.893852     22.465601      0.809424     13.875953
 2280.0   -192.718561     22.603277      0.812653     13.905877
 2285.0   -193.538497     22.741168      0.815891     13.935573
 2290.0   -194.353011     22.878999      0.819128     13.965019
 2295.0   -195.161554     23.016518      0.822356     13.994194
 2300.0   -195.964090     23.153584      0.825568     14.023095
 2305.0   -196.760912     23.290124      0.828762     14.051733
 2310.0   -197.553112     23.426239      0.831938     14.080145
 2315.0   -198.341943     23.562062      0.835100     14.108375
 2320.0   -199.128510     23.697695      0.838248     14.136462
 2325.0   -199.913888     23.833235      0.841384     14.164442
 2330.0   -200.699193     23.968788      0.844510     14.192354
 2335.0   -201.485549     24.104459      0.847626     14.220238
 2340.0   -202.274069     24.240353      0.850735     14.248131
 2345.0   -203.065865     24.376573      0.853838     14.276073
 2350.0   -203.862047     24.513224      0.856936     14.304101
 2355.0   -204.663728     24.650410      0.860031     14.332254
 2360.0   -205.472035     24.788237      0.863125     14.360572
 2365.0   -206.288085     24.926809      0.866218     14.389093
 2370.0   -207.112942     25.066226      0.869313     14.417855
 2375.0   -207.947704     25.206592      0.872411     14.446894
 2380.0   -208.793675     25.348026      0.875514     14.476257
 2385.0   -209.651939     25.490630      0.878623     14.505980
 2390.0   -210.522504     25.634423      0.881738     14.536065
 2395.0   -211.404938     25.779390      0.884860     14.566497
 2400.0   -212.298114     25.925465      0.887990     14.597238
 2405.0   -213.200773     26.072569      0.891126     14.628246
 2410.0   -214.111815     26.220637      0.894270     14.659483
 2415.0   -215.030170     26.369605      0.897421     14.690914
 2420.0   -215.954725     26.519407      0.900579     14.722500
 2425.0   -216.884359     26.669975      0.903744     14.754204
 2430.0   -217.817964     26.821242      0.906915     14.785988
 2435.0   -218.754432     26.973143      0.910093     14.817815
 2440.0   -219.692652     27.125612      0.913278     14.849648
 2445.0   -220.631514     27.278581      0.916470     14.881448
 2450.0   -221.569908     27.431984      0.919669     14.913179
 2455.0   -222.506724     27.585755      0.922874     14.944802
 2460.0   -223.440851     27.739827      0.926086     14.976281
 2465.0   -224.371181     27.894134      0.929305     15.007578
 2470.0   -225.296602     28.048610      0.932530     15.038655
 2475.0   -226.216005     28.203187      0.935762     15.069475
 2480.0   -227.128279     28.357800      0.939000     15.100000
 2485.0   -228.032658     28.512402      0.942245     15.130204
 2490.0   -228.929749     28.667031      0.945496     15.160107
 2495.0   -229.820501     28.821744      0.948753     15.189739
 2500.0   -230.705864     28.976598      0.952017     15.219132
 2505.0   -231.586788     29.131650      0.955287     15.248316
 2510.0   -232.464222     29.286959      0.958563     15.277322
 2515.0   -233.339117     29.442582      0.961844     15.306181
 2520.0   -234.212423     29.598575      0.965131     15.334924
 2525.0   -235.085090     29.754996      0.968424     15.363582
 2530.0   -235.958066     29.911903      0.971723     15.392185
 2535.0   -236.832302     30.069353      0.975027     15.420765
 2540.0   -237.708748     30.227403      0.978336     15.449352
 2545.0   -238.588355     30.386112      0.981650     15.477977
 2550.0   -239.472069     30.545536      0.984970     15.506670
 2555.0   -240.360841     30.705732      0.988295     15.535464
 2560.0   -241.255629     30.866759      0.991624     15.564389
 2565.0   -242.157386     31.028674      0.994958     15.593476
 2570.0   -243.067024     31.191532      0.998297     15.622754
 2575.0   -243.985482     31.355390      1.001641     15.652254
 2580.0   -244.913856     31.520315      1.004989     15.682012
 2585.0   -245.853033     31.686359      1.008341     15.712056
 2590.0   -246.802898     31.853513      1.011698     15.742383
 2595.0   -247.762987     32.021743      1.015059     15.772980
 2600.0   -248.732435     32.190991      1.018424     15.803819
 2605.0   -249.710299     32.361193      1.021793     15.834870
 2610.0   -250.695737     32.532291      1.025166     15.866107
 2615.0   -251.687925     32.704229      1.028543     15.897505
 2620.0   -252.686011     32.876950      1.031923     15.929037
 2625.0   -253.689140     33.050395      1.035307     15.960676
 2630.0   -254.696464     33.224508      1.038694     15.992395
 2635.0   -255.707134     33.399230      1.042085     16.024168
 2640.0   -256.720302     33.574503      1.045479     16.055969
 2645.0   -257.735118     33.750269      1.048876     16.087771
 2650.0   -258.750733     33.926472      1.052276     16.119547
 2655.0   -259.766297     34.103054      1.055679     16.151271
 2660.0   -260.780964     34.279956      1.059085     16.182916
 2665.0   -261.793884     34.457121      1.062494     16.214456
 2670.0   -262.804200     34.634491      1.065906     16.245864
 2675.0   -263.811061     34.812008      1.069320     16.277114
 2680.0   -264.813649     34.989616      1.072736     16.308180
 2685.0   -265.811122     35.167258      1.076155     16.339035
 2690.0   -266.802517     35.344869      1.079577     16.369649
 2695.0   -267.786985     35.522391      1.083001     16.399996
 2700.0   -268.764251     35.699806      1.086426     16.430068
 2705.0   -269.734328     35.877115      1.089853     16.459864
 2710.0   -270.697803     36.054357      1.093283     16.489402
 2715.0   -271.655376     36.231581      1.096715     16.518704
 2720.0   -272.607627     36.408827      1.100149     16.547789
 2725.0   -273.555113     36.586133      1.103586     16.576673
 2730.0   -274.498422     36.763541      1.107025     16.605374
 2735.0   -275.438149     36.941090      1.110467     16.633911
 2740.0   -276.374881     37.118821      1.113911     16.662302
 2745.0   -277.309203     37.296773      1.117358     16.690564
 2750.0   -278.241702     37.474988      1.120807     16.718716
 2755.0   -279.172966     37.653506      1.124259     16.746776
 2760.0   -280.103581     37.832367      1.127713     16.774763
 2765.0   -281.034134     38.011612      1.131170     16.802693
 2770.0   -281.965212     38.191281      1.134630     16.830586
 2775.0   -282.897403     38.371413      1.138093     16.858459
 2780.0   -283.831293     38.552050      1.141559     16.886331
 2785.0   -284.767469     38.733232      1.145028     16.914220
 2790.0   -285.706519     38.915000      1.148500     16.942143
 2795.0   -286.649031     39.097393      1.151975     16.970119
 2800.0   -287.595586     39.280451      1.155453     16.998165
 2805.0   -288.546768     39.464216      1.158934     17.026301
 2810.0   -289.503190     39.648728      1.162418     17.054544
 2815.0   -290.465445     39.834028      1.165906     17.082913
 2820.0   -291.434019     40.020152      1.169397     17.111423
 2825.0   -292.409247     40.207133      1.172891     17.140084
 2830.0   -293.390985     40.394987      1.176390     17.168891
 2835.0   -294.378980     40.583725      1.179894     17.197838
 2840.0   -295.373038     40.773363      1.183404     17.226917
 2845.0   -296.372977     40.963914      1.186921     17.256124
 2850.0   -297.378596     41.155393      1.190444     17.285451
 2855.0   -298.389694     41.347813      1.193975     17.314893
 2860.0   -299.406073     41.541189      1.197514     17.344443
 2865.0   -300.427536     41.735535      1.201062     17.374095
 2870.0   -301.453885     41.930865      1.204621     17.403843
 2875.0   -302.484922     42.127193      1.208190     17.433681
 2880.0   -303.520448     42.324534      1.211771     17.463603
 2885.0   -304.560266     42.522900      1.215363     17.493602
 2890.0   -305.604177     42.722307      1.218968     17.523672
 2895.0   -306.651983     42.922768      1.222586     17.553807
 2900.0   -307.703487     43.124298      1.226219     17.584002
 2905.0   -308.758490     43.326910      1.229866     17.614249
 2910.0   -309.816794     43.530619      1.233529     17.644543
 2915.0   -310.878201     43.735438      1.237208     17.674877
 2920.0   -311.942514     43.941383      1.240904     17.705245
 2925.0   -313.009534     44.148467      1.244617     17.735641
 2930.0   -314.079062     44.356704      1.248348     17.766059
 2935.0   -315.150900     44.566108      1.252098     17.796492
 2940.0   -316.224854     44.776692      1.255868     17.826935
 2945.0   -317.300727     44.988472      1.259659     17.857382
 2950.0   -318.378305     45.201462      1.263470     17.887825
 2955.0   -319.457406     45.415676      1.267303     17.918259
 2960.0   -320.537988     45.631115      1.271157     17.948683
 2965.0   -321.620053     45.847780      1.275033     17.979097
 2970.0   -322.703636     46.065667      1.278931     18.009501
 2975.0   -323.788775     46.284774      1.282850     18.039897
 2980.0   -324.875503     46.505098      1.286789     18.070286
 2985.0   -325.963849     46.726636      1.290749     18.100669
 2990.0   -327.053846     46.949387      1.294730     18.131047
 2995.0   -328.145525     47.173347      1.298731     18.161421
 3000.0   -329.238919     47.398514      1.302752     18.191791
 3050.0   -340.274300     49.715921      1.344005     18.495528
 3100.0   -351.516231     52.151200      1.387000     18.800000
 3150.0   -362.987656     54.700359      1.431496     19.105902
 3200.0   -374.676949     57.352896      1.477181     19.412839
 3250.0   -386.562550     60.097352      1.523750     19.720135
 3300.0   -398.617720     62.924956      1.570990     20.027073
 3350.0   -410.807459     65.828286      1.618750     20.332800
 3400.0   -423.068905     68.802615      1.667034     20.635973
 3450.0   -435.349150     71.845513      1.715886     20.935496
 3500.0   -447.662978     74.961025      1.765348     21.231769
 3550.0   -460.058058     78.156861      1.815475     21.525927
 3600.0   -472.645921     81.448907      1.866377     21.820565
 3650.0   -485.536491     84.852294      1.918152     22.118226
 3700.0   -498.769399     88.370957      1.970780     22.419784
 3750.0   -512.354470     92.003846      2.024190     22.725395
 3800.0   -526.252580     95.741172      2.078209     23.034023
 3850.0   -540.415385     99.571815      2.132652     23.344418
 3900.0   -554.806596    103.488067      2.187391     23.655672
 3950.0   -569.394348    107.484337      2.242343     23.967034
 4000.0   -584.152415    111.560091      2.297543     24.278035
 4050.0   -599.054353    115.715767      2.353051     24.588241
 4100.0   -614.067214    119.950653      2.408916     24.897079
 4150.0   -629.165753    124.264570      2.465178     25.204111
 4200.0   -644.362042    128.660638      2.521862     25.509569
 4250.0   -659.681140    133.143102      2.578985     25.813919
 4300.0   -675.162748    137.717407      2.636554     26.117889
 4350.0   -690.851418    142.389389      2.694575     26.422291
 4400.0   -706.796480    147.165253      2.753050     26.728018
 4450.0   -723.034066    152.050158      2.811990     27.035735
 4500.0   -739.542746    157.044720      2.871431     27.345105
 4550.0   -756.281761    162.148029      2.931419     27.655455
 4600.0   -773.190604    167.357615      2.992008     27.965769
 4650.0   -790.203710    172.670608      3.053255     28.274940
 4700.0   -807.255019    178.084092      3.115219     28.581857
 4750.0   -824.283914    183.595585      3.177954     28.885500
 4800.0   -841.252038    189.204394      3.241501     29.185235
 4850.0   -858.140875    194.911419      3.305892     29.480769
 4900.0   -874.989007    200.722158      3.371123     29.772795
 4950.0   -891.846710    206.643037      3.437184     30.062207
 5000.0   -908.753923    212.679612      3.504071     30.349722
 5050.0   -925.749682    218.837395      3.571780     30.636041
 5100.0   -942.879730    225.122595      3.640305     30.921977
 5150.0   -960.186915    231.541062      3.709642     31.208297
 5200.0   -977.695797    238.096524      3.779785     31.495459
 5250.0   -995.417391    244.791123      3.850730     31.783693
 5300.0  -1013.326827    251.622786      3.922474     32.072627
 5350.0  -1031.391769    258.588557      3.995012     32.361763
 5400.0  -1049.585887    265.686170      4.068341     32.650702
 5450.0  -1067.884047    272.913514      4.142455     32.939068
 5500.0  -1086.259879    280.268396      4.217353     33.226464
 5550.0  -1104.686439    287.748511      4.293030     33.512482
 5600.0  -1123.135706    295.351181      4.369479     33.796692
 5650.0  -1141.581502    303.074231      4.446696     34.078700
 5700.0  -1160.006084    310.917879      4.524702     34.358290
 5750.0  -1178.394972    318.883262      4.603527     34.635314
 5800.0  -1196.738313    326.972814      4.683213     34.909722
 5850.0  -1215.027131    335.189215      4.763804     35.181482
 5900.0  -1233.251348    343.534837      4.845341     35.450539
 5950.0  -1251.400686    352.011995      4.927866     35.716832
 6000.0  -1269.465180    360.623088      5.011421     35.980310
 6050.0  -1287.434908    369.370528      5.096048     36.240920
 6100.0  -1305.299798    378.256709      5.181788     36.498608
 6150.0  -1323.049813    387.284018      5.268683     36.753320
 6200.0  -1340.675193    396.454838      5.356774     37.005004
 6250.0  -1358.175591    405.772219      5.446090     37.253726
 6300.0  -1375.588034    415.241875      5.536614     37.500011
 6350.0  -1392.958654    424.870072      5.628315     37.744497
 6400.0  -1410.332639    434.662619      5.721158     37.987807
 6450.0  -1427.755567    444.625622      5.815112     38.230570
 6500.0  -1445.275537    454.766819      5.910160     38.473457
 6550.0  -1462.937007    465.091526      6.006263     38.717080
 6600.0  -1480.767361    475.593730      6.103279     38.961759
 6650.0  -1498.788270    486.263698      6.201034     39.207720
 6700.0  -1517.015629    497.088143      6.299320     39.455091
 6750.0  -1535.464468    508.053027      6.397923     39.703985
 6800.0  -1554.152129    519.144857      6.496631     39.954548
 6850.0  -1573.095563    530.350566      6.595237     40.206925
 6900.0  -1592.307852    541.658261      6.693557     40.461216
 6950.0  -1611.793716    553.059370      6.791467     40.717432
 7000.0  -1631.528306    564.557440      6.889053     40.975272
 7050.0  -1651.479966    576.158794      6.986452     41.234362
 7100.0  -1671.619382    587.868736      7.083783     41.494353
 7150.0  -1691.917667    599.692420      7.181160     41.754901
 7200.0  -1712.345299    611.635406      7.278706     42.015655
 7250.0  -1732.872647    623.703204      7.376542     42.276261
 7300.0  -1753.470280    635.900701      7.474783     42.536372
 7350.0  -1774.108986    648.230468      7.573515     42.795651
 7400.0  -1794.760215    660.686432      7.672728     43.053799
 7450.0  -1815.395548    673.260460      7.772386     43.310528
 7500.0  -1835.986412    685.944821      7.872460     43.565546
 7550.0  -1856.504319    698.731882      7.972922     43.818561
 7600.0  -1876.921275    711.614001      8.073741     44.069288
 7650.0  -1897.208955    724.583441      8.174887     44.317439
 7700.0  -1917.337210    737.632103      8.276328     44.562702
 7750.0  -1937.277604    750.752264      8.378034     44.804785
 7800.0  -1957.010384    763.938071      8.479986     45.043512
 7850.0  -1976.520068    777.184596      8.582170     45.278761
 7900.0  -1995.799573    790.488737      8.684584     45.510520
 7950.0  -2014.843406    803.847731      8.787226     45.738798
 8000.0  -2033.644037    817.258359      8.890093     45.963577
 8050.0  -2052.193781    830.717378      8.993182     46.184838
 8100.0  -2070.486370    844.221917      9.096490     46.402577
 8150.0  -2088.514981    857.768941      9.200013     46.616784
 8200.0  -2106.269168    871.354389      9.303748     46.827416
 8250.0  -2123.741218    884.974981      9.407692     47.034453
 8300.0  -2140.937976    898.631601      9.511847     47.238014
 8350.0  -2157.877373    912.328304      9.616222     47.438321
 8400.0  -2174.607125    926.077667      9.720838     47.635875
 8450.0  -2191.181096    939.894027      9.825721     47.831234
 8500.0  -2207.647949    953.790239      9.930892     48.024906
 8550.0  -2224.055498    967.778911     10.036373     48.217393
 8600.0  -2240.453358    981.873140     10.142187     48.409215
 8650.0  -2256.891092    996.086025     10.248356     48.600889
 8700.0  -2273.416263   1010.430194     10.354903     48.792914
 8750.0  -2290.077485   1024.918508     10.461849     48.985797
 8800.0  -2306.929575   1039.565224     10.569218     49.180110
 8850.0  -2324.022084   1054.383419     10.677033     49.376372
 8900.0  -2341.377306   1069.380060     10.785311     49.574823
 8950.0  -2359.001883   1084.558605     10.894068     49.775541
 9000.0  -2376.867117   1099.914592     11.003314     49.978245
 9050.0  -2394.937226   1115.441971     11.113058     50.182579
 9100.0  -2413.183441   1131.136265     11.223309     50.388259
 9150.0  -2431.578276   1146.993283     11.334077     50.595016
 9200.0  -2450.092365   1163.008413     11.445373     50.802562
 9250.0  -2468.696000   1179.176967     11.557206     51.010603
 9300.0  -2487.359975   1195.494368     11.669585     51.218853
 9350.0  -2506.055177   1211.956063     11.782521     51.427024
 9400.0  -2524.752357   1228.557465     11.896024     51.634828
 9450.0  -2543.422243   1245.293984     12.010102     51.841977
 9500.0  -2562.035598   1262.161037     12.124766     52.048183
 9550.0  -2580.563192   1279.154042     12.240025     52.253159
 9600.0  -2598.975785   1296.268416     12.355890     52.456617
 9650.0  -2617.244135   1313.499576     12.472370     52.658269
 9700.0  -2635.339004   1330.842937     12.589475     52.857826
 9750.0  -2653.231153   1348.293916     12.707214     53.055001
 9800.0  -2670.891342   1365.847931     12.825598     53.249506
 9850.0  -2688.290332   1383.500398     12.944636     53.441054
 9900.0  -2705.398885   1401.246734     13.064337     53.629356
 9950.0  -2722.187761   1419.082355     13.184712     53.814125
10000.0  -2738.627720   1437.002677     13.305771     53.995072
