#Lambda        Dielectric Constant          Refractive Index
# [nm]        [Real]        [Imag]        [Real]        [Imag]
   10.0      0.872538      0.029100      0.934214      0.015571
   15.0      0.794651      0.196470      0.908038      0.102991
   20.0      0.713545      0.268008      0.859000      0.156000
   25.0      0.629503      0.338008      0.814120      0.213106
   30.0      0.542809      0.500763      0.800417      0.312817
   35.0      0.454544      0.792152      0.829459      0.468879
   40.0      0.368985      1.014392      0.851000      0.596000
   45.0      0.301230      1.020017      0.829492      0.624350
   50.0      0.306475      1.096500      0.850000      0.645000
   55.0      0.422559      1.485406      0.982124      0.742323
   60.0      0.577800      1.809738      1.113000      0.813000
   65.0      0.683940      1.702806      1.126387      0.757358
   70.0      0.695941      1.457700      1.075000      0.678000
   75.0      0.604972      1.425969      1.037705      0.688621
   80.0      0.503816      1.533210      1.029000      0.745000
   85.0      0.486611      1.635858      1.047169      0.780658
   90.0      0.551296      1.739640      1.090000      0.798000
   95.0      0.661662      1.873055      1.150120      0.814121
  100.0      0.741104      2.006400      1.200000      0.836000
  105.0      0.730778      2.108389      1.217477      0.866232
  110.0      0.683284      2.199600      1.222000      0.900000
  115.0      0.662024      2.306125      1.236972      0.931949
  120.0      0.662156      2.424240      1.260000      0.962000
  125.0      0.665713      2.544990      1.283884      0.991220
  130.0      0.670464      2.668320      1.308000      1.020000
  135.0      0.679369      2.794456      1.333243      1.047922
  140.0      0.700416      2.915840      1.360000      1.072000
  145.0      0.740756      3.025613      1.388521      1.089594
  150.0      0.799157      3.127476      1.419000      1.102000
  155.0      0.874693      3.221217      1.451173      1.109704
  160.0      0.976053      3.280396      1.483000      1.106000
  165.0      1.097060      3.282964      1.509912      1.087341
  170.0      1.162461      3.250660      1.519000      1.070000
  175.0      1.108149      3.213386      1.501054      1.070306
  180.0      0.983675      3.189900      1.470000      1.085000
  185.0      0.856004      3.195063      1.442998      1.107186
  190.0      0.748104      3.239290      1.427000      1.135000
  195.0      0.662018      3.330068      1.424079      1.169075
  200.0      0.560104      3.467610      1.427000      1.215000
  205.0      0.413345      3.642321      1.428416      1.275045
  210.0      0.266919      3.812638      1.429836      1.333240
  215.0      0.167375      3.943054      1.434054      1.374762
  220.0      0.092550      4.054244      1.440143      1.407603
  225.0      0.010798      4.174774      1.446733      1.442859
  230.0     -0.078737      4.308601      1.454394      1.481229
  235.0     -0.172109      4.453482      1.463639      1.521350
  240.0     -0.276960      4.606980      1.472803      1.564011
  245.0     -0.401908      4.767306      1.480206      1.610299
  250.0     -0.547878      4.935471      1.486275      1.660336
  255.0     -0.701948      5.116691      1.493985      1.712583
  260.0     -0.803505      5.330219      1.514404      1.759835
  265.0     -0.805410      5.586759      1.555222      1.795971
  270.0     -0.762100      5.848790      1.602517      1.824885
  275.0     -0.733512      6.078870      1.641732      1.851444
  280.0     -0.700002      6.288106      1.677369      1.874387
  285.0     -0.634360      6.491972      1.715834      1.891740
  290.0     -0.558697      6.674860      1.752098      1.904812
  295.0     -0.498743      6.817703      1.780094      1.914998
  300.0     -0.445380      6.918682      1.801043      1.920760
  305.0     -0.385159      6.981233      1.817492      1.920585
  310.0     -0.322156      7.012560      1.830000      1.916000
  315.0     -0.264999      7.016369      1.837994      1.908703
  320.0     -0.223013      6.978595      1.838356      1.898029
  325.0     -0.203497      6.890224      1.828888      1.883693
  330.0     -0.204959      6.780221      1.813621      1.869280
  335.0     -0.223662      6.680186      1.797254      1.858455
  340.0     -0.255684      6.594273      1.780927      1.851328
  345.0     -0.296951      6.520632      1.765004      1.847197
  350.0     -0.342968      6.460835      1.750304      1.845661
  355.0     -0.391832      6.417778      1.737497      1.846844
  360.0     -0.452417      6.396244      1.726203      1.852664
  365.0     -0.533306      6.399360      1.715852      1.864774
  370.0     -0.631134      6.421752      1.706152      1.881966
  375.0     -0.737590      6.454045      1.696862      1.901782
  380.0     -0.836533      6.479364      1.687658      1.919620
  385.0     -0.914460      6.485175      1.678485      1.931835
  390.0     -0.976253      6.483825      1.670439      1.940756
  395.0     -1.029841      6.487903      1.664244      1.949206
  400.0     -1.076972      6.486096      1.658000      1.956000
  405.0     -1.116971      6.465686      1.649920      1.959401
  410.0     -1.145658      6.432224      1.641312      1.959483
  415.0     -1.159530      6.393828      1.633778      1.956743
  420.0     -1.161285      6.350607      1.627019      1.951573
  425.0     -1.155763      6.299889      1.620057      1.944330
  430.0     -1.150173      6.235872      1.611106      1.935337
  435.0     -1.152134      6.150776      1.597946      1.924753
  440.0     -1.168549      6.032026      1.577421      1.912107
  445.0     -1.204193      5.870146      1.547120      1.896994
  450.0     -1.256064      5.672853      1.508557      1.879886
  455.0     -1.318689      5.453368      1.464500      1.861555
  460.0     -1.384497      5.229754      1.418803      1.843081
  465.0     -1.449651      5.014908      1.373844      1.825643
  470.0     -1.527345      4.796235      1.325011      1.810494
  475.0     -1.633751      4.557135      1.266661      1.798990
  480.0     -1.779918      4.290470      1.196028      1.792823
  485.0     -1.973284      3.996866      1.112657      1.794151
  490.0     -2.211955      3.698527      1.022475      1.806668
  495.0     -2.492064      3.419970      0.932301      1.833907
  500.0     -2.811181      3.173385      0.846135      1.877224
  505.0     -3.167303      2.964460      0.766647      1.936692
  510.0     -3.558692      2.785192      0.693999      2.009434
  515.0     -3.983162      2.625382      0.627835      2.091995
  520.0     -4.436480      2.479722      0.568229      2.181544
  525.0     -4.912828      2.345261      0.515326      2.275404
  530.0     -5.402103      2.223583      0.469119      2.370869
  535.0     -5.893264      2.117139      0.429556      2.465248
  540.0     -6.375796      2.027313      0.396551      2.555924
  545.0     -6.839170      1.954287      0.369817      2.640545
  550.0     -7.272262      1.894511      0.348295      2.717741
  555.0     -7.663346      1.843434      0.330716      2.786313
  560.0     -7.998872      1.796246      0.315755      2.844752
  565.0     -8.267559      1.748714      0.302225      2.891834
  570.0     -8.469039      1.699165      0.289555      2.927765
  575.0     -8.607139      1.646923      0.277415      2.953301
  580.0     -8.691569      1.592728      0.265816      2.969956
  585.0     -8.733159      1.537592      0.254837      2.979387
  590.0     -8.741342      1.482190      0.244474      2.983071
  595.0     -8.725294      1.427134      0.234707      2.982453
  600.0     -8.694561      1.373126      0.225539      2.979025
  605.0     -8.658762      1.320887      0.216977      2.974289
  610.0     -8.627428      1.271111      0.209022      2.969735
  615.0     -8.610061      1.224490      0.201674      2.966850
  620.0     -8.616147      1.181717      0.194934      2.967118
  625.0     -8.655206      1.143491      0.188804      2.972026
  630.0     -8.736920      1.110520      0.183285      2.983090
  635.0     -8.870853      1.083503      0.178379      3.001806
  640.0     -9.065950      1.063092      0.174086      3.029568
  645.0     -9.331581      1.049970      0.170407      3.067840
  650.0     -9.679439      1.045008      0.167348      3.118467
  655.0    -10.117758      1.048798      0.164907      3.182727
  660.0    -10.638622      1.060644      0.163040      3.259261
  665.0    -11.228807      1.079424      0.161687      3.345844
  670.0    -11.870002      1.103611      0.160774      3.439422
  675.0    -12.542834      1.131590      0.160226      3.536767
  680.0    -13.228784      1.161816      0.159967      3.634784
  685.0    -13.909890      1.192789      0.159926      3.730474
  690.0    -14.569576      1.223122      0.160035      3.821081
  695.0    -15.195321      1.251762      0.160239      3.904553
  700.0    -15.789431      1.278870      0.160531      3.981405
  705.0    -16.357617      1.304885      0.160912      4.052744
  710.0    -16.904377      1.330148      0.161381      4.119465
  715.0    -17.433998      1.354983      0.161937      4.182428
  720.0    -17.951134      1.379744      0.162579      4.242559
  725.0    -18.460466      1.404787      0.163307      4.300785
  730.0    -18.966417      1.430443      0.164119      4.357982
  735.0    -19.472661      1.456966      0.165012      4.414861
  740.0    -19.980144      1.484325      0.165979      4.471531
  745.0    -20.489164      1.512424      0.167010      4.527956
  750.0    -21.000163      1.541179      0.168095      4.584131
  755.0    -21.513600      1.570509      0.169226      4.640057
  760.0    -22.029853      1.600332      0.170394      4.695723
  765.0    -22.549324      1.630564      0.171590      4.751120
  770.0    -23.072594      1.661110      0.172803      4.806249
  775.0    -23.600087      1.691887      0.174023      4.861103
  780.0    -24.131411      1.722861      0.175249      4.915632
  785.0    -24.665775      1.754026      0.176482      4.969766
  790.0    -25.201613      1.785425      0.177728      5.023395
  795.0    -25.737206      1.817110      0.178997      5.076402
  800.0    -26.270984      1.849122      0.180295      5.128676
  805.0    -26.801420      1.881502      0.181630      5.180110
  810.0    -27.326999      1.914292      0.183009      5.230597
  815.0    -27.846157      1.947534      0.184440      5.280029
  820.0    -28.357131      1.981274      0.185930      5.328279
  825.0    -28.858326      2.015556      0.187488      5.375235
  830.0    -29.349035      2.050404      0.189116      5.420858
  835.0    -29.829228      2.085828      0.190815      5.465165
  840.0    -30.300698      2.121799      0.192577      5.508326
  845.0    -30.765616      2.158280      0.194391      5.550541
  850.0    -31.225837      2.195240      0.196249      5.591982
  855.0    -31.683163      2.232651      0.198143      5.632819
  860.0    -32.139493      2.270481      0.200064      5.673230
  865.0    -32.596732      2.308699      0.202003      5.713393
  870.0    -33.056707      2.347277      0.203952      5.753478
  875.0    -33.521278      2.386184      0.205902      5.793660
  880.0    -33.992517      2.425382      0.207844      5.834132
  885.0    -34.472320      2.464840      0.209769      5.875072
  890.0    -34.961666      2.504558      0.211673      5.916570
  895.0    -35.461011      2.544551      0.213555      5.958663
  900.0    -35.969624      2.584874      0.215421      6.001277
  905.0    -36.486539      2.625589      0.217277      6.044312
  910.0    -37.011024      2.666750      0.219129      6.087694
  915.0    -37.542388      2.708411      0.220983      6.131350
  920.0    -38.079879      2.750627      0.222844      6.175203
  925.0    -38.622733      2.793453      0.224717      6.219174
  930.0    -39.170205      2.836946      0.226609      6.263185
  935.0    -39.721552      2.881161      0.228525      6.307161
  940.0    -40.276016      2.926148      0.230471      6.351024
  945.0    -40.832844      2.971963      0.232452      6.394697
  950.0    -41.391329      3.018675      0.234474      6.438099
  955.0    -41.950712      3.066337      0.236544      6.481155
  960.0    -42.510001      3.114902      0.238660      6.523804
  965.0    -43.068108      3.164289      0.240821      6.565990
  970.0    -43.623814      3.214358      0.243022      6.607668
  975.0    -44.175873      3.264961      0.245257      6.648792
  980.0    -44.723071      3.315964      0.247521      6.689317
  985.0    -45.264202      3.367233      0.249809      6.729195
  990.0    -45.798044      3.418631      0.252116      6.768380
  995.0    -46.323379      3.470021      0.254437      6.806826
 1000.0    -46.839005      3.521267      0.256767      6.844486
 1005.0    -47.343710      3.572234      0.259101      6.881315
 1010.0    -47.836225      3.622782      0.261433      6.917263
 1015.0    -48.315320      3.672774      0.263759      6.952284
 1020.0    -48.779975      3.722085      0.266073      6.986341
 1025.0    -49.229026      3.770583      0.268371      7.019390
 1030.0    -49.660528      3.818087      0.270647      7.051347
 1035.0    -50.073579      3.864479      0.272896      7.082182
 1040.0    -50.472216      3.909939      0.275118      7.112133
 1045.0    -50.862207      3.954751      0.277313      7.141533
 1050.0    -51.251298      3.999317      0.279485      7.170824
 1055.0    -51.647607      4.044061      0.281636      7.200466
 1060.0    -52.058767      4.089380      0.283770      7.230895
 1065.0    -52.492320      4.135663      0.285889      7.262539
 1070.0    -52.955936      4.183308      0.287995      7.295835
 1075.0    -53.457311      4.232715      0.290092      7.331221
 1080.0    -54.004115      4.284280      0.292182      7.369133
 1085.0    -54.604008      4.338401      0.294268      7.410008
 1090.0    -55.264620      4.395475      0.296353      7.454280
 1095.0    -55.993608      4.455898      0.298439      7.502385
 1100.0    -56.798760      4.520074      0.300529      7.554766
 1105.0    -57.687773      4.588401      0.302625      7.611861
 1110.0    -58.667850      4.661255      0.304731      7.674079
 1115.0    -59.746532      4.739029      0.306850      7.741850
 1120.0    -60.933202      4.822199      0.308983      7.815710
 1125.0    -62.235832      4.911175      0.311134      7.896113
 1130.0    -63.654919      5.006029      0.313305      7.983079
 1135.0    -65.184422      5.106538      0.315500      8.076246
 1140.0    -66.799624      5.211632      0.317721      8.174166
 1145.0    -68.471878      5.320061      0.319970      8.275164
 1150.0    -70.175482      5.430711      0.322251      8.377734
 1155.0    -71.885275      5.542490      0.324567      8.480404
 1160.0    -73.575306      5.654271      0.326921      8.581654
 1165.0    -75.219480      5.764922      0.329314      8.679955
 1170.0    -76.791913      5.873320      0.331751      8.773793
 1175.0    -78.266759      5.978342      0.334234      8.861654
 1180.0    -79.618117      6.078864      0.336766      8.942023
 1185.0    -80.820076      6.173761      0.339350      9.013381
 1190.0    -81.846733      6.261909      0.341988      9.074213
 1195.0    -82.672194      6.342184      0.344683      9.123002
 1200.0    -83.270576      6.413462      0.347439      9.158233
 1205.0    -83.615985      6.474619      0.350258      9.178389
 1210.0    -83.682461      6.524529      0.353143      9.181951
 1215.0    -83.444090      6.562066      0.356097      9.167402
 1220.0    -82.875202      6.586117      0.359123      9.133239
 1225.0    -81.949960      6.595560      0.362223      9.077949
 1230.0    -80.641616      6.589232      0.365401      8.999965
 1235.0    -78.924044      6.566000      0.368659      8.897758
 1240.0    -76.774516      6.524880      0.372000      8.770000
 1245.0    -74.221552      6.467061      0.375419      8.618405
 1250.0    -71.495280      6.402257      0.378876      8.456656
 1255.0    -68.888055      6.342844      0.382324      8.302129
 1260.0    -66.739534      6.303316      0.385714      8.175016
 1265.0    -65.345542      6.296206      0.388999      8.092902
 1270.0    -64.779261      6.324076      0.392137      8.060120
 1275.0    -65.003935      6.384587      0.395092      8.074461
 1280.0    -65.765700      6.465771      0.397838      8.120794
 1285.0    -66.764091      6.553527      0.400350      8.181213
 1290.0    -67.729354      6.634847      0.402586      8.239646
 1295.0    -68.456342      6.700608      0.404555      8.283853
 1300.0    -68.967627      6.756148      0.406489      8.315107
 1305.0    -69.350107      6.810912      0.408686      8.338496
 1310.0    -69.720267      6.876325      0.411477      8.360860
 1315.0    -70.197151      6.963833      0.415190      8.389194
 1320.0    -70.880441      7.082989      0.420097      8.429356
 1325.0    -71.832122      7.238912      0.426322      8.485003
 1330.0    -72.982758      7.420882      0.433454      8.552124
 1335.0    -74.232963      7.614598      0.440964      8.624963
 1340.0    -75.494965      7.807273      0.448376      8.698436
 1345.0    -76.680480      7.985998      0.455207      8.767433
 1350.0    -77.687561      8.135863      0.460900      8.826051
 1355.0    -78.421605      8.243082      0.464941      8.868814
 1360.0    -78.831044      8.300355      0.467062      8.892730
 1365.0    -78.835449      8.296018      0.466828      8.893142
 1370.0    -78.195913      8.194450      0.462899      8.856233
 1375.0    -76.781631      7.976374      0.454552      8.774434
 1380.0    -75.052669      7.711849      0.444447      8.674320
 1385.0    -73.635146      7.495934      0.436192      8.592067
 1390.0    -73.228514      7.434357      0.433789      8.568101
 1395.0    -74.297204      7.597177      0.439891      8.629269
 1400.0    -76.292234      7.901091      0.451338      8.743863
 1405.0    -78.479683      8.234815      0.463913      8.869485
 1410.0    -80.399289      8.528489      0.474968      8.979552
 1415.0    -81.748445      8.736147      0.482758      9.056584
 1420.0    -82.581508      8.865991      0.487593      9.103715
 1425.0    -83.038309      8.939187      0.490273      9.129016
 1430.0    -83.243610      8.974610      0.491511      9.139686
 1435.0    -83.322183      8.991134      0.492021      9.142927
 1440.0    -83.413914      9.009937      0.492603      9.146813
 1445.0    -83.637274      9.048935      0.493935      9.158180
 1450.0    -84.009956      9.110706      0.496112      9.178049
 1455.0    -84.519115      9.193180      0.499054      9.205675
 1460.0    -85.130525      9.291039      0.502559      9.239082
 1465.0    -85.805320      9.398255      0.506396      9.276025
 1470.0    -86.507450      9.509207      0.510349      9.314419
 1475.0    -87.204309      9.618816      0.514225      9.352381
 1480.0    -87.874240      9.723764      0.517898      9.388665
 1485.0    -88.503261      9.821962      0.521291      9.422472
 1490.0    -89.097152      9.914483      0.524449      9.454152
 1495.0    -89.665688     10.003033      0.527443      9.484290
 1500.0    -90.214882     10.088704      0.530317      9.513247
 1505.0    -90.750070     10.172489      0.533114      9.541349
 1510.0    -91.277653     10.255609      0.535887      9.568987
 1515.0    -91.804105     10.339190      0.538683      9.596548
 1520.0    -92.335126     10.423762      0.541512      9.624326
 1525.0    -92.876216     10.509676      0.544376      9.652586
 1530.0    -93.432830     10.597169      0.547268      9.681583
 1535.0    -94.010418     10.686459      0.550182      9.711568
 1540.0    -94.614439     10.777791      0.553112      9.742796
 1545.0    -95.250353     10.871417      0.556053      9.775522
 1550.0    -95.923619     10.967580      0.559000      9.810000
 1555.0    -96.636492     11.066365      0.561949      9.846330
 1560.0    -97.378423     11.167226      0.564902      9.883990
 1565.0    -98.135659     11.269460      0.567865      9.922304
 1570.0    -98.894449     11.372363      0.570843      9.960595
 1575.0    -99.641041     11.475232      0.573841      9.998186
 1580.0   -100.361683     11.577364      0.576863     10.034402
 1585.0   -101.042622     11.678054      0.579914     10.068565
 1590.0   -101.670111     11.776600      0.583000     10.100000
 1595.0   -102.235267     11.872537      0.586123     10.128269
 1600.0   -102.748654     11.966357      0.589276     10.153891
 1605.0   -103.225717     12.058789      0.592452     10.177625
 1610.0   -103.681979     12.150570      0.595641     10.200233
 1615.0   -104.132910     12.242431      0.598836     10.222476
 1620.0   -104.593688     12.335091      0.602028     10.245100
 1625.0   -105.079689     12.429276      0.605209     10.268861
 1630.0   -105.607382     12.525768      0.608371     10.294567
 1635.0   -106.189508     12.625167      0.611505     10.322844
 1640.0   -106.822790     12.727308      0.614614     10.353533
 1645.0   -107.499550     12.831813      0.617700     10.386258
 1650.0   -108.210512     12.938230      0.620769     10.420564
 1655.0   -108.946169     13.046093      0.623825     10.455986
 1660.0   -109.697693     13.154972      0.626871     10.492091
 1665.0   -110.456144     13.264429      0.629913     10.528441
 1670.0   -111.211443     13.373969      0.632954     10.564543
 1675.0   -111.954447     13.483146      0.636000     10.599948
 1680.0   -112.680892     13.591761      0.639053     10.634448
 1685.0   -113.388941     13.699742      0.642114     10.667951
 1690.0   -114.081592     13.807262      0.645184     10.700604
 1695.0   -114.762800     13.914545      0.648261     10.732598
 1700.0   -115.435521     14.021762      0.651346     10.764076
 1705.0   -116.102506     14.129075      0.654438     10.795172
 1710.0   -116.766673     14.236653      0.657536     10.826027
 1715.0   -117.431065     14.344673      0.660641     10.856790
 1720.0   -118.099043     14.453328      0.663753     10.887622
 1725.0   -118.773229     14.562772      0.666872     10.918651
 1730.0   -119.452968     14.672976      0.669997     10.949853
 1735.0   -120.136603     14.783852      0.673130     10.981158
 1740.0   -120.821738     14.895274      0.676271     11.012460
 1745.0   -121.505835     15.007105      0.679422     11.043648
 1750.0   -122.186523     15.119219      0.682584     11.074617
 1755.0   -122.861483     15.231494      0.685757     11.105266
 1760.0   -123.528437     15.343808      0.688943     11.135496
 1765.0   -124.185036     15.456037      0.692142     11.165203
 1770.0   -124.828592     15.568036      0.695355     11.194270
 1775.0   -125.457609     15.679728      0.698584     11.222631
 1780.0   -126.075682     15.791315      0.701827     11.250438
 1785.0   -126.687797     15.903075      0.705082     11.277905
 1790.0   -127.299401     16.015313      0.708346     11.305265
 1795.0   -127.916048     16.128337      0.711619     11.332756
 1800.0   -128.543245     16.242454      0.714897     11.360612
 1805.0   -129.186418     16.357968      0.718179     11.389066
 1810.0   -129.850717     16.475164      0.721464     11.418338
 1815.0   -130.541511     16.594342      0.724749     11.448658
 1820.0   -131.265323     16.715867      0.728032     11.480305
 1825.0   -132.027123     16.840016      0.731311     11.513491
 1830.0   -132.824508     16.966651      0.734586     11.548115
 1835.0   -133.652498     17.095491      0.737860     11.583967
 1840.0   -134.503163     17.226088      0.741134     11.620710
 1845.0   -135.368014     17.357964      0.744412     11.657985
 1850.0   -136.239273     17.490680      0.747697     11.695463
 1855.0   -137.109306     17.623806      0.750990     11.732820
 1860.0   -137.970349     17.756904      0.754295     11.769727
 1865.0   -138.814558     17.889531      0.757613     11.805852
 1870.0   -139.633899     18.021234      0.760948     11.840855
 1875.0   -140.420516     18.151571      0.764302     11.874402
 1880.0   -141.167452     18.280148      0.767677     11.906199
 1885.0   -141.870374     18.406716      0.771074     11.936062
 1890.0   -142.534556     18.531557      0.774492     11.964213
 1895.0   -143.167508     18.655075      0.777926     11.990967
 1900.0   -143.776068     18.777638      0.781374     12.016612
 1905.0   -144.366964     18.899607      0.784832     12.041431
 1910.0   -144.947138     19.021356      0.788297     12.065717
 1915.0   -145.523539     19.143258      0.791767     12.089761
 1920.0   -146.102917     19.265677      0.795237     12.113847
 1925.0   -146.692118     19.388981      0.798705     12.138264
 1930.0   -147.298555     19.513567      0.802167     12.163324
 1935.0   -147.929219     19.639811      0.805621     12.189319
 1940.0   -148.588838     19.767970      0.809064     12.216450
 1945.0   -149.280167     19.898197      0.812495     12.244832
 1950.0   -150.000320     20.030349      0.815916     12.274344
 1955.0   -150.745226     20.164218      0.819329     12.304814
 1960.0   -151.511702     20.299645      0.822736     12.336107
 1965.0   -152.296728     20.436480      0.826139     12.368097
 1970.0   -153.097046     20.574560      0.829539     12.400647
 1975.0   -153.909355     20.713718      0.832939     12.433617
 1980.0   -154.730418     20.853791      0.836341     12.466871
 1985.0   -155.557008     20.994619      0.839746     12.500273
 1990.0   -156.385881     21.136038      0.843156     12.533686
 1995.0   -157.213792     21.277886      0.846573     12.566974
 2000.0   -158.037500     21.420000      0.850000     12.600000
 2005.0   -158.854293     21.562241      0.853437     12.632651
 2010.0   -159.663583     21.704559      0.856885     12.664906
 2015.0   -160.465309     21.846929      0.860342     12.696768
 2020.0   -161.259413     21.989324      0.863808     12.728241
 2025.0   -162.045835     22.131719      0.867282     12.759327
 2030.0   -162.824518     22.274088      0.870764     12.790028
 2035.0   -163.595404     22.416404      0.874253     12.820348
 2040.0   -164.358425     22.558641      0.877749     12.850290
 2045.0   -165.113518     22.700772      0.881250     12.879856
 2050.0   -165.860661     22.842775      0.884756     12.909050
 2055.0   -166.599805     22.984625      0.888266     12.937876
 2060.0   -167.330754     23.126283      0.891780     12.966331
 2065.0   -168.053432     23.267722      0.895296     12.994419
 2070.0   -168.768406     23.408970      0.898815     13.022163
 2075.0   -169.476649     23.550088      0.902337     13.049602
 2080.0   -170.180130     23.691223      0.905861     13.076808
 2085.0   -170.881016     23.832537      0.909388     13.103860
 2090.0   -171.581291     23.974178      0.912917     13.130831
 2095.0   -172.282901     24.116291      0.916450     13.157793
 2100.0   -172.987842     24.259023      0.919987     13.184820
 2105.0   -173.698119     24.402524      0.923527     13.211985
 2110.0   -174.415736     24.546944      0.927071     13.239361
 2115.0   -175.142686     24.692431      0.930619     13.267022
 2120.0   -175.880929     24.839130      0.934171     13.295039
 2125.0   -176.632451     24.987190      0.937728     13.323487
 2130.0   -177.399373     25.136767      0.941290     13.352442
 2135.0   -178.183718     25.288013      0.944857     13.381979
 2140.0   -178.986983     25.441040      0.948430     13.412154
 2145.0   -179.809946     25.595910      0.952008     13.442994
 2150.0   -180.651039     25.752519      0.955591     13.474440
 2155.0   -181.508180     25.910724      0.959180     13.506414
 2160.0   -182.379564     26.070403      0.962774     13.538848
 2165.0   -183.263438     26.231438      0.966375     13.571677
 2170.0   -184.157973     26.393705      0.969982     13.604832
 2175.0   -185.061328     26.557080      0.973595     13.638244
 2180.0   -185.971684     26.721439      0.977214     13.671844
 2185.0   -186.887224     26.886660      0.980840     13.705564
 2190.0   -187.806112     27.052618      0.984472     13.739336
 2195.0   -188.726521     27.219190      0.988111     13.773090
 2200.0   -189.646673     27.386256      0.991756     13.806760
 2205.0   -190.564758     27.553692      0.995408     13.840279
 2210.0   -191.478784     27.721365      0.999067     13.873571
 2215.0   -192.386954     27.889153      1.002733     13.906568
 2220.0   -193.288438     28.056997      1.006407     13.939241
 2225.0   -194.182805     28.224862      1.010088     13.971575
 2230.0   -195.070249     28.392754      1.013775     14.003581
 2235.0   -195.951081     28.560686      1.017469     14.035272
 2240.0   -196.825471     28.728663      1.021170     14.066658
 2245.0   -197.693560     28.896688      1.024877     14.097746
 2250.0   -198.555528     29.064765      1.028589     14.128546
 2255.0   -199.411564     29.232900      1.032308     14.159067
 2260.0   -200.261845     29.401097      1.036032     14.189318
 2265.0   -201.106548     29.569362      1.039762     14.219309
 2270.0   -201.945847     29.737698      1.043497     14.249048
 2275.0   -202.779919     29.906111      1.047237     14.278545
 2280.0   -203.608956     30.074607      1.050983     14.307810
 2285.0   -204.433141     30.243191      1.054733     14.336852
 2290.0   -205.252598     30.411863      1.058488     14.365678
 2295.0   -206.067500     30.580628      1.062247     14.394298
 2300.0   -206.878264     30.749512      1.066011     14.422727
 2305.0   -207.685466     30.918558      1.069779     14.450986
 2310.0   -208.490064     31.087845      1.073552     14.479107
 2315.0   -209.293091     31.257458      1.077329     14.507123
 2320.0   -210.095511     31.427477      1.081111     14.535065
 2325.0   -210.898273     31.597979      1.084898     14.562965
 2330.0   -211.702345     31.769043      1.088690     14.590855
 2335.0   -212.508700     31.940750      1.092487     14.618766
 2340.0   -213.318305     32.113178      1.096290     14.646729
 2345.0   -214.132127     32.286408      1.100098     14.674777
 2350.0   -214.951130     32.460518      1.103911     14.702942
 2355.0   -215.776281     32.635588      1.107730     14.731254
 2360.0   -216.608561     32.811698      1.111555     14.759745
 2365.0   -217.448939     32.988928      1.115386     14.788448
 2370.0   -218.298337     33.167354      1.119223     14.817393
 2375.0   -219.157709     33.347053      1.123066     14.846610
 2380.0   -220.028198     33.528120      1.126916     14.876138
 2385.0   -220.910744     33.710632      1.130772     14.906007
 2390.0   -221.805289     33.894584      1.134634     14.936215
 2395.0   -222.711363     34.079936      1.138503     14.966746
 2400.0   -223.627854     34.266594      1.142378     14.997565
 2405.0   -224.553525     34.454456      1.146259     15.028631
 2410.0   -225.487289     34.643432      1.150145     15.059909
 2415.0   -226.428084     34.833433      1.154036     15.091364
 2420.0   -227.374810     35.024368      1.157933     15.122959
 2425.0   -228.326360     35.216143      1.161835     15.154659
 2430.0   -229.281637     35.408667      1.165741     15.186427
 2435.0   -230.239545     35.601850      1.169651     15.218228
 2440.0   -231.198986     35.795599      1.173565     15.250026
 2445.0   -232.158863     35.989823      1.177484     15.281786
 2450.0   -233.118077     36.184430      1.181406     15.313471
 2455.0   -234.075531     36.379329      1.185332     15.345045
 2460.0   -235.030127     36.574429      1.189260     15.376472
 2465.0   -235.980767     36.769637      1.193191     15.407718
 2470.0   -236.926353     36.964863      1.197125     15.438745
 2475.0   -237.865788     37.160014      1.201061     15.469518
 2480.0   -238.797975     37.355000      1.205000     15.500000
 2485.0   -239.722159     37.549758      1.208940     15.530168
 2490.0   -240.638960     37.744346      1.212883     15.560040
 2495.0   -241.549344     37.938850      1.216829     15.589648
 2500.0   -242.454277     38.133357      1.220777     15.619021
 2505.0   -243.354723     38.327955      1.224728     15.648190
 2510.0   -244.251646     38.522730      1.228683     15.677185
 2515.0   -245.146012     38.717770      1.232641     15.706038
 2520.0   -246.038785     38.913160      1.236603     15.734779
 2525.0   -246.930931     39.108988      1.240570     15.763437
 2530.0   -247.823414     39.305341      1.244541     15.792044
 2535.0   -248.717199     39.502306      1.248517     15.820631
 2540.0   -249.613252     39.699970      1.252499     15.849227
 2545.0   -250.512538     39.898419      1.256486     15.877863
 2550.0   -251.416019     40.097741      1.260479     15.906570
 2555.0   -252.324659     40.298022      1.264478     15.935378
 2560.0   -253.239433     40.499351      1.268483     15.964317
 2565.0   -254.161310     40.701814      1.272495     15.993419
 2570.0   -255.091214     40.905494      1.276515     16.022713
 2575.0   -256.030099     41.110477      1.280542     16.052229
 2580.0   -256.979080     41.316865      1.284576     16.082003
 2585.0   -257.939059     41.524738      1.288618     16.112062
 2590.0   -258.909912     41.734084      1.292668     16.142403
 2595.0   -259.891160     41.944858      1.296726     16.173012
 2600.0   -260.881913     42.156977      1.300791     16.203862
 2605.0   -261.881206     42.370353      1.304863     16.234924
 2610.0   -262.888172     42.584906      1.308942     16.266170
 2615.0   -263.901965     42.800557      1.313027     16.297575
 2620.0   -264.921710     43.017225      1.317119     16.329113
 2625.0   -265.946528     43.234829      1.321216     16.360757
 2630.0   -266.975548     43.453288      1.325319     16.392481
 2635.0   -268.007898     43.672522      1.329427     16.424257
 2640.0   -269.042707     43.892451      1.333539     16.456058
 2645.0   -270.079102     44.112993      1.337656     16.487859
 2650.0   -271.116210     44.334067      1.341777     16.519634
 2655.0   -272.153159     44.555593      1.345902     16.551355
 2660.0   -273.189078     44.777491      1.350031     16.582996
 2665.0   -274.223096     44.999680      1.354163     16.614530
 2670.0   -275.254332     45.222079      1.358297     16.645930
 2675.0   -276.281911     45.444606      1.362434     16.677170
 2680.0   -277.304993     45.667184      1.366573     16.708224
 2685.0   -278.322714     45.889733      1.370714     16.739066
 2690.0   -279.334084     46.112161      1.374856     16.769665
 2695.0   -280.338229     46.334388      1.379000     16.799996
 2700.0   -281.334873     46.556389      1.383145     16.830049
 2705.0   -282.324036     46.778170      1.387291     16.859825
 2710.0   -283.306335     46.999793      1.391438     16.889343
 2715.0   -284.282505     47.221332      1.395587     16.918625
 2720.0   -285.253153     47.442849      1.399739     16.947688
 2725.0   -286.218863     47.664402      1.403893     16.976550
 2730.0   -287.180253     47.886054      1.408050     17.005230
 2735.0   -288.137949     48.107868      1.412210     17.033747
 2740.0   -289.092566     48.329906      1.416374     17.062119
 2745.0   -290.044718     48.552230      1.420541     17.090365
 2750.0   -290.995020     48.774903      1.424712     17.118502
 2755.0   -291.944090     48.997986      1.428887     17.146550
 2760.0   -292.892544     49.221543      1.433067     17.174527
 2765.0   -293.840998     49.445635      1.437252     17.202452
 2770.0   -294.790067     49.670325      1.441443     17.230343
 2775.0   -295.740369     49.895674      1.445639     17.258218
 2780.0   -296.692518     50.121746      1.449841     17.286096
 2785.0   -297.647131     50.348602      1.454049     17.313995
 2790.0   -298.604825     50.576305      1.458263     17.341935
 2795.0   -299.566218     50.804917      1.462484     17.369933
 2800.0   -300.531917     51.034499      1.466713     17.398008
 2805.0   -301.502538     51.265114      1.470949     17.426178
 2810.0   -302.478724     51.496827      1.475193     17.454462
 2815.0   -303.461099     51.729701      1.479445     17.482880
 2820.0   -304.450165     51.963785      1.483705     17.511446
 2825.0   -305.446261     52.199112      1.487974     17.540171
 2830.0   -306.449194     52.435652      1.492251     17.569048
 2835.0   -307.458651     52.673364      1.496535     17.598069
 2840.0   -308.474385     52.912214      1.500826     17.627226
 2845.0   -309.496158     53.152169      1.505125     17.656512
 2850.0   -310.523717     53.393194      1.509430     17.685919
 2855.0   -311.556804     53.635253      1.513741     17.715440
 2860.0   -312.595168     53.878312      1.518057     17.745067
 2865.0   -313.638557     54.122336      1.522379     17.774792
 2870.0   -314.686718     54.367290      1.526705     17.804609
 2875.0   -315.739399     54.613140      1.531036     17.834510
 2880.0   -316.796346     54.859851      1.535371     17.864486
 2885.0   -317.857308     55.107387      1.539710     17.894531
 2890.0   -318.922032     55.355714      1.544052     17.924636
 2895.0   -319.990265     55.604797      1.548396     17.954795
 2900.0   -321.061754     55.854602      1.552743     17.985000
 2905.0   -322.136247     56.105093      1.557092     18.015243
 2910.0   -323.213491     56.356236      1.561443     18.045517
 2915.0   -324.293234     56.607995      1.565795     18.075814
 2920.0   -325.375224     56.860337      1.570148     18.106127
 2925.0   -326.459208     57.113226      1.574502     18.136448
 2930.0   -327.544931     57.366628      1.578855     18.166770
 2935.0   -328.632140     57.620507      1.583208     18.197084
 2940.0   -329.720591     57.874829      1.587560     18.227384
 2945.0   -330.810033     58.129561      1.591911     18.257663
 2950.0   -331.900183     58.384662      1.596261     18.287911
 2955.0   -332.990820     58.640103      1.600608     18.318122
 2960.0   -334.081998     58.895898      1.604954     18.348297
 2965.0   -335.173857     59.152077      1.609298     18.378441
 2970.0   -336.266613     59.408679      1.613642     18.408558
 2975.0   -337.360484     59.665745      1.617986     18.438655
 2980.0   -338.455636     59.923311      1.622330     18.468735
 2985.0   -339.552257     60.181414      1.626675     18.498805
 2990.0   -340.650676     60.440102      1.631020     18.528872
 2995.0   -341.751131     60.699416      1.635367     18.558943
 3000.0   -342.853346     60.959359      1.639717     18.589012
 3050.0   -354.009589     63.601380      1.683478     18.890650
 3100.0   -365.654016     66.355200      1.728000     19.200000
 3150.0   -377.901821     69.238484      1.773445     19.519889
 3200.0   -389.919412     72.142211      1.819019     19.829918
 3250.0   -401.092301     74.987181      1.864141     20.114857
 3300.0   -412.631216     77.940151      1.910046     20.403389
 3350.0   -425.536162     81.133482      1.957659     20.719741
 3400.0   -438.139051     84.315988      2.004849     21.026401
 3450.0   -448.968765     87.273541      2.049877     21.289781
 3500.0   -460.010163     90.323782      2.095630     21.553724
 3550.0   -473.197075     93.774999      2.144917     21.861205
 3600.0   -486.803247     97.366287      2.195609     22.174307
 3650.0   -499.033666    100.814475      2.245180     22.453436
 3700.0   -511.478381    104.316524      2.294465     22.733184
 3750.0   -525.939544    108.106976      2.344704     23.052849
 3800.0   -541.682675    112.090581      2.395386     23.396359
 3850.0   -557.416922    116.107335      2.445810     23.735666
 3900.0   -572.162599    120.068026      2.496260     24.050184
 3950.0   -585.432726    123.949243      2.547346     24.329947
 4000.0   -598.400000    127.920000      2.600000     24.600000
 4050.0   -612.344753    132.149003      2.654891     24.887441
 4100.0   -627.318188    136.611300      2.711317     25.192574
 4150.0   -643.040493    141.236879      2.768372     25.508778
 4200.0   -659.136940    145.969127      2.825710     25.828537
 4250.0   -675.226519    150.759590      2.883189     26.144513
 4300.0   -690.998017    155.579033      2.940921     26.450980
 4350.0   -706.303127    160.419547      2.999078     26.745326
 4400.0   -721.575355    165.339305      3.057820     27.035788
 4450.0   -737.290786    170.398902      3.117257     27.331365
 4500.0   -753.514003    175.602531      3.177320     27.633254
 4550.0   -770.183728    180.936883      3.237881     27.940260
 4600.0   -787.146752    186.375049      3.298749     28.249428
 4650.0   -804.277285    191.897194      3.359800     28.558290
 4700.0   -821.651154    197.525369      3.421229     28.868091
 4750.0   -839.374391    203.287396      3.483273     29.180657
 4800.0   -857.472228    209.192289      3.546022     29.496433
 4850.0   -875.905420    215.233288      3.609434     29.814768
 4900.0   -894.457619    221.359356      3.673098     30.132022
 4950.0   -912.892146    227.514861      3.736569     30.444231
 5000.0   -931.068114    233.670084      3.799646     30.749130
 5050.0   -948.888438    239.808180      3.862262     31.045262
 5100.0   -966.335443    245.937901      3.924630     31.332693
 5150.0   -983.420430    252.074445      3.987013     31.611975
 5200.0  -1000.191178    258.233209      4.049582     31.884093
 5250.0  -1016.734360    264.432886      4.112466     32.150562
 5300.0  -1033.255738    270.705148      4.175731     32.414594
 5350.0  -1049.982856    277.083737      4.239424     32.679703
 5400.0  -1067.111294    283.597685      4.303589     32.948916
 5450.0  -1084.791474    290.268199      4.368240     33.224530
 5500.0  -1103.025147    297.089891      4.433280     33.506402
 5550.0  -1121.782236    304.050628      4.498572     33.793850
 5600.0  -1141.054031    311.137892      4.563934     34.086482
 5650.0  -1160.817731    318.341731      4.629247     34.383751
 5700.0  -1180.972795    325.662842      4.694690     34.684194
 5750.0  -1201.389644    333.106083      4.760557     34.986010
 5800.0  -1221.900277    340.682302      4.827299     35.286959
 5850.0  -1242.328149    348.403541      4.895399     35.584698
 5900.0  -1262.500948    356.280616      4.965316     35.876922
 5950.0  -1282.287128    364.321786      5.037394     36.161885
 6000.0  -1301.713971    372.526313      5.111544     36.440037
 6050.0  -1320.848586    380.890845      5.187563     36.712380
 6100.0  -1339.758549    389.410587      5.265229     36.979930
 6150.0  -1358.516471    398.081351      5.344318     37.243765
 6200.0  -1377.214622    406.902831      5.424616     37.505209
 6250.0  -1395.865560    415.862210      5.505914     37.764557
 6300.0  -1414.143322    424.892753      5.588002     38.017739
 6350.0  -1431.735829    433.931394      5.670696     38.260836
 6400.0  -1448.725058    442.983674      5.753906     38.494913
 6450.0  -1465.498137    452.107192      5.837599     38.724890
 6500.0  -1483.268756    461.499177      5.921890     38.966134
 6550.0  -1503.082833    471.332119      6.006903     39.231892
 6600.0  -1524.488647    481.539931      6.092672     39.516481
 6650.0  -1546.548689    491.979538      6.179202     39.808079
 6700.0  -1567.879931    502.438480      6.266493     40.089235
 6750.0  -1587.396999    512.744714      6.354475     40.346231
 6800.0  -1605.650650    522.957255      6.442818     40.585895
 6850.0  -1623.574088    533.189090      6.531129     40.819864
 6900.0  -1641.994178    543.538045      6.619037     41.058450
 6950.0  -1661.473934    554.063964      6.706219     41.308699
 7000.0  -1681.627296    564.689935      6.792527     41.565899
 7050.0  -1701.870218    575.312027      6.877863     41.822884
 7100.0  -1721.775766    585.855004      6.962169     42.074417
 7150.0  -1741.091135    596.280691      7.045482     42.317387
 7200.0  -1760.102914    606.670466      7.128194     42.555248
 7250.0  -1779.213268    617.131240      7.210773     42.792867
 7300.0  -1798.747277    627.752513      7.293634     43.034182
 7350.0  -1818.906906    638.595600      7.377100     43.281672
 7400.0  -1839.478734    649.626496      7.461191     43.532908
 7450.0  -1860.142821    660.787238      7.545854     43.784202
 7500.0  -1880.568545    672.019345      7.631053     44.031750
 7550.0  -1900.506693    683.277037      7.716739     44.272679
 7600.0  -1920.044385    694.565849      7.802806     44.507949
 7650.0  -1939.374682    705.906148      7.889113     44.739724
 7700.0  -1958.778069    717.326299      7.975449     44.971148
 7750.0  -1978.510442    728.855889      8.061660     45.205099
 7800.0  -1998.641902    740.521380      8.147891     45.442421
 7850.0  -2019.155751    752.348416      8.234433     45.683011
 7900.0  -2039.873883    764.362504      8.321863     45.925005
 7950.0  -2060.586422    776.588868      8.410813     46.166191
 8000.0  -2081.117829    789.051753      8.501845     46.404734
 8050.0  -2101.328276    801.762217      8.595321     46.639176
 8100.0  -2121.186435    814.679560      8.690884     46.869194
 8150.0  -2140.685035    827.748157      8.787985     47.094720
 8200.0  -2159.804542    840.904449      8.886018     47.315557
 8250.0  -2178.536544    854.091520      8.984424     47.531625
 8300.0  -2196.929377    867.286967      9.082875     47.743438
 8350.0  -2215.071241    880.493193      9.181209     47.951924
 8400.0  -2233.153036    893.777314      9.279710     48.159081
 8450.0  -2251.395285    907.223447      9.378769     48.367220
 8500.0  -2270.034300    920.919000      9.478779     48.578820
 8550.0  -2289.270966    934.935502      9.580046     48.795988
 8600.0  -2309.148659    949.277679      9.682533     49.019156
 8650.0  -2329.630644    963.916141      9.786028     49.247909
 8700.0  -2350.517234    978.751831      9.889959     49.480104
 8750.0  -2371.570900    993.669041      9.993665     49.713196
 8800.0  -2392.565690   1008.555117     10.096493     49.944760
 8850.0  -2413.302999   1023.310869     10.197866     50.172663
 8900.0  -2433.682024   1037.887916     10.297514     50.395828
 8950.0  -2453.661575   1052.268525     10.395350     50.613821
 9000.0  -2473.341109   1066.506740     10.491716     50.827722
 9050.0  -2492.849051   1080.671378     10.587039     51.038923
 9100.0  -2512.289057   1094.818566     10.681673     51.248551
 9150.0  -2531.757134   1109.000575     10.775948     51.457648
 9200.0  -2551.343449   1123.266953     10.870177     51.667197
 9250.0  -2571.116244   1137.656502     10.964611     51.877944
 9300.0  -2591.061888   1152.167778     11.059261     52.089761
 9350.0  -2611.148427   1166.790327     11.154085     52.302321
 9400.0  -2631.352476   1181.517918     11.249067     52.515393
 9450.0  -2651.652219   1196.345090     11.344193     52.728760
 9500.0  -2672.023546   1211.265253     11.439445     52.942180
 9550.0  -2692.441924   1226.271608     11.534802     53.155409
 9600.0  -2712.883436   1241.357662     11.630246     53.368206
 9650.0  -2733.324277   1256.516975     11.725759     53.580335
 9700.0  -2753.740479   1271.743026     11.821321     53.791555
 9750.0  -2774.108042   1287.029280     11.916914     54.001628
 9800.0  -2794.403011   1302.369224     12.012519     54.210313
 9850.0  -2814.601439   1317.756347     12.108118     54.417372
 9900.0  -2834.679367   1333.184134     12.203692     54.622566
 9950.0  -2854.612835   1348.646070     12.299223     54.825654
10000.0  -2874.377882   1364.135638     12.394691     55.026397
10050.0  -2893.950547   1379.646323     12.490079     55.224555
10100.0  -2913.306869   1395.171608     12.585366     55.419888
10150.0  -2932.422888   1410.704978     12.680536     55.612157
10200.0  -2951.274642   1426.239917     12.775569     55.801121
10250.0  -2969.838170   1441.769909     12.870446     55.986541
10300.0  -2988.089513   1457.288437     12.965148     56.168178
10350.0  -3006.004708   1472.788986     13.059658     56.345791
10400.0  -3023.559796   1488.265039     13.153955     56.519141
10450.0  -3040.730814   1503.710082     13.248023     56.687988
10500.0  -3057.493804   1519.117598     13.341841     56.852092
10550.0  -3073.824802   1534.481070     13.435391     57.011213
10600.0  -3089.699849   1549.793983     13.528654     57.165113
10650.0  -3105.094985   1565.049822     13.621613     57.313550
10700.0  -3119.986247   1580.242069     13.714247     57.456285
10750.0  -3134.349675   1595.364209     13.806539     57.593079
10800.0  -3148.161308   1610.409727     13.898469     57.723692
10850.0  -3161.397186   1625.372105     13.990019     57.847884
10900.0  -3174.033348   1640.244829     14.081171     57.965415
10950.0  -3186.045832   1655.021382     14.171905     58.076045
11000.0  -3197.410678   1669.695248     14.262203     58.179536
11050.0  -3208.103925   1684.259911     14.352046     58.275646
11100.0  -3218.101612   1698.708856     14.441415     58.364136
11150.0  -3227.379779   1713.035566     14.530292     58.444767
11200.0  -3235.914464   1727.233525     14.618658     58.517299
11250.0  -3243.681706   1741.296218     14.706495     58.581491
11300.0  -3250.657546   1755.217128     14.793783     58.637105
11350.0  -3256.818021   1768.989739     14.880505     58.683900
11400.0  -3262.139171   1782.607536     14.966640     58.721637
11450.0  -3266.597036   1796.064003     15.052171     58.750076
11500.0  -3270.167653   1809.352623     15.137079     58.768978
11550.0  -3272.827064   1822.466881     15.221345     58.778101
11600.0  -3274.551306   1835.400260     15.304950     58.777208
11650.0  -3275.316418   1848.146245     15.387877     58.766057
11700.0  -3275.098441   1860.698320     15.470105     58.744410
11750.0  -3273.873413   1873.049968     15.551617     58.712026
11800.0  -3271.617373   1885.194674     15.632393     58.668666
11850.0  -3268.306360   1897.125922     15.712416     58.614089
11900.0  -3263.916414   1908.837196     15.791665     58.548057
11950.0  -3258.423574   1920.321980     15.870124     58.470330
12000.0  -3251.803878   1931.573757     15.947772     58.380667
12050.0  -3244.033367   1942.586013     16.024591     58.278829
12100.0  -3235.088078   1953.352230     16.100563     58.164576
12150.0  -3224.944052   1963.865894     16.175668     58.037669
12200.0  -3213.577327   1974.120487     16.249889     57.897868
12250.0  -3200.963943   1984.109495     16.323206     57.744932
12300.0  -3187.079939   1993.826400     16.395601     57.578623
12350.0  -3171.901353   2003.264688     16.467055     57.398700
12400.0  -3155.404225   2012.417842     16.537549     57.204924
12450.0  -3137.564595   2021.279346     16.607064     56.997055
12500.0  -3118.358501   2029.842684     16.675583     56.774853
12550.0  -3097.761982   2038.101341     16.743086     56.538078
12600.0  -3075.751078   2046.048800     16.809554     56.286491
12650.0  -3052.301828   2053.678545     16.874969     56.019853
12700.0  -3027.390270   2060.984061     16.939312     55.737922
12750.0  -3000.992445   2067.958831     17.002565     55.440460
12800.0  -2973.084391   2074.596339     17.064708     55.127226
12850.0  -2943.642147   2080.890070     17.125723     54.797982
12900.0  -2912.641753   2086.833508     17.185592     54.452486
12950.0  -2880.059247   2092.420136     17.244295     54.090501
13000.0  -2845.870669   2097.643438     17.301815     53.711784
13050.0  -2810.052058   2102.496900     17.358131     53.316098
13100.0  -2772.579453   2106.974003     17.413226     52.903202
13150.0  -2733.428894   2111.068234     17.467081     52.472857
13200.0  -2692.576418   2114.773075     17.519677     52.024822
13250.0  -2649.998067   2118.082011     17.570995     51.558858
13300.0  -2605.669878   2120.988526     17.621017     51.074725
13350.0  -2559.567891   2123.486104     17.669724     50.572184
13400.0  -2511.668144   2125.568228     17.717097     50.050994
13450.0  -2461.946678   2127.228383     17.763119     49.510916
13500.0  -2410.379532   2128.460053     17.807769     48.951711
13550.0  -2356.942743   2129.256723     17.851029     48.373138
13600.0  -2301.612352   2129.611875     17.892881     47.774958
13650.0  -2244.364398   2129.518994     17.933305     47.156930
13700.0  -2185.174920   2128.971564     17.972284     46.518816
13750.0  -2124.019957   2127.963069     18.009798     45.860375
13800.0  -2060.875548   2126.486994     18.045829     45.181368
13850.0  -1995.717732   2124.536822     18.080358     44.481555
13900.0  -1928.522549   2122.106036     18.113367     43.760696
13950.0  -1859.266037   2119.188122     18.144836     43.018551
14000.0  -1787.924236   2115.776564     18.174747     42.254882
14050.0  -1714.473185   2111.864844     18.203081     41.469447
14100.0  -1638.888923   2107.446448     18.229820     40.662007
14150.0  -1561.147490   2102.514859     18.254945     39.832323
14200.0  -1481.224923   2097.063562     18.278437     38.980154
14250.0  -1399.097263   2091.086040     18.300277     38.105261
14300.0  -1314.740549   2084.575777     18.320447     37.207405
14350.0  -1228.130820   2077.526258     18.338929     36.286345
14400.0  -1139.244114   2069.930967     18.355702     35.341841
14450.0  -1048.056472   2061.783387     18.370750     34.373655
14500.0   -954.543932   2053.077003     18.384052     33.381546
14550.0   -858.682533   2043.805298     18.395591     32.365274
14600.0   -760.448315   2033.961757     18.405347     31.324599
14650.0   -659.817316   2023.539864     18.413302     30.259283
14700.0   -556.765576   2012.533102     18.419437     29.169085
14750.0   -451.269134   2000.934956     18.423734     28.053765
14800.0   -343.304030   1988.738910     18.426173     26.913084
14850.0   -232.846301   1975.938448     18.426737     25.746802
14900.0   -119.871989   1962.527054     18.425406     24.554679
14950.0     -4.357130   1948.498211     18.422162     23.336476
