#Lambda        Dielectric Constant          Refractive Index
# [nm]        [Real]        [Imag]        [Real]        [Imag]
   10.0      0.989617      0.040198      0.995000      0.020200
   15.0      0.960486      0.015700      0.980018      0.008045
   20.0      0.918972      0.010450      0.958646      0.005450
   25.0      0.866233      0.019040      0.930842      0.010208
   30.0      0.803427      0.036065      0.896561      0.020113
   35.0      0.732276      0.057217      0.856208      0.033499
   40.0      0.656769      0.082592      0.811981      0.050855
   45.0      0.578327      0.112940      0.764314      0.073568
   50.0      0.485844      0.147234      0.704798      0.104451
   55.0      0.370769      0.182938      0.626302      0.146121
   60.0      0.247314      0.213262      0.535640      0.198991
   65.0      0.130127      0.234496      0.444406      0.264620
   70.0      0.012854      0.259502      0.369369      0.351353
   75.0     -0.114092      0.300554      0.323574      0.463820
   80.0     -0.252225      0.351000      0.300000      0.585000
   85.0     -0.401481      0.401968      0.288105      0.697280
   90.0     -0.563551      0.454639      0.283347      0.802316
   95.0     -0.739986      0.512882      0.283382      0.905352
  100.0     -0.930008      0.581279      0.288673      1.006712
  105.0     -1.131901      0.663267      0.299822      1.105506
  110.0     -1.342511      0.756999      0.315176      1.200915
  115.0     -1.559048      0.860530      0.333026      1.292473
  120.0     -1.781618      0.976812      0.353685      1.381068
  125.0     -2.012110      1.108486      0.377451      1.468038
  130.0     -2.256640      1.252043      0.402530      1.555173
  135.0     -2.519382      1.406150      0.427843      1.643740
  140.0     -2.792506      1.584310      0.457252      1.732470
  145.0     -3.065939      1.800345      0.494716      1.819568
  150.0     -3.332639      2.054507      0.539628      1.903675
  155.0     -3.583904      2.338710      0.589597      1.982804
  160.0     -3.801363      2.625087      0.639669      2.052008
  165.0     -3.973455      2.888661      0.685383      2.108026
  170.0     -4.125537      3.135800      0.726800      2.157295
  175.0     -4.287042      3.374271      0.764195      2.207021
  180.0     -4.466802      3.586102      0.794167      2.257782
  185.0     -4.670883      3.759654      0.814424      2.309684
  190.0     -4.914883      3.934367      0.830798      2.367584
  195.0     -5.222220      4.132155      0.846232      2.436832
  200.0     -5.638064      4.253760      0.844000      2.520000
  205.0     -6.204472      4.262317      0.817196      2.621377
  210.0     -6.929308      4.491715      0.817850      2.754900
  215.0     -7.758940      5.244055      0.894828      2.923949
  220.0     -8.427963      6.323531      1.025389      3.080024
  225.0     -8.706328      7.454350      1.173297      3.177513
  230.0     -8.717198      8.538669      1.319930      3.234223
  235.0     -8.628682      9.536822      1.454769      3.277230
  240.0     -8.435474     10.463884      1.582096      3.307250
  245.0     -8.106226     11.334710      1.707210      3.320040
  250.0     -7.678824     12.108526      1.824692      3.317871
  255.0     -7.199827     12.744666      1.928475      3.304221
  260.0     -6.681231     13.258529      2.020624      3.280888
  265.0     -6.135287     13.675346      2.104018      3.250010
  270.0     -5.609814     14.003619      2.176647      3.216765
  275.0     -5.150502     14.250528      2.236286      3.186092
  280.0     -4.758954     14.434706      2.284724      3.158928
  285.0     -4.426109     14.577320      2.324699      3.135316
  290.0     -4.144324     14.698224      2.358719      3.115729
  295.0     -3.906312     14.815013      2.389040      3.100615
  300.0     -3.704783     14.937573      2.417151      3.089906
  305.0     -3.532881     15.071781      2.444108      3.083289
  310.0     -3.385500     15.215200      2.470000      3.080000
  315.0     -3.256861     15.363770      2.494824      3.079100
  320.0     -3.136741     15.515248      2.519162      3.079406
  325.0     -3.015112     15.667966      2.543650      3.079809
  330.0     -2.887166     15.820722      2.568550      3.079737
  335.0     -2.752255     15.972918      2.593851      3.079062
  340.0     -2.621153     16.125895      2.618818      3.078894
  345.0     -2.505048     16.281270      2.642709      3.080408
  350.0     -2.405359     16.439825      2.665478      3.083795
  355.0     -2.319301     16.602136      2.687393      3.088838
  360.0     -2.237058     16.768800      2.709281      3.094664
  365.0     -2.148758     16.940111      2.731945      3.100373
  370.0     -2.051347     17.115118      2.755543      3.105599
  375.0     -1.944628     17.292215      2.779947      3.110190
  380.0     -1.833003     17.468408      2.804546      3.114312
  385.0     -1.721533     17.640654      2.828673      3.118188
  390.0     -1.613317     17.807093      2.851919      3.121953
  395.0     -1.510246     17.966813      2.874055      3.125706
  400.0     -1.411327     18.121517      2.895310      3.129488
  405.0     -1.314932     18.273563      2.916023      3.133333
  410.0     -1.219764     18.425315      2.936505      3.137304
  415.0     -1.124664     18.578588      2.957008      3.141436
  420.0     -1.028696     18.733004      2.977584      3.145620
  425.0     -0.931045     18.887386      2.998208      3.149697
  430.0     -0.831144     19.039574      3.018753      3.153456
  435.0     -0.728419     19.187132      3.039070      3.156667
  440.0     -0.622018     19.327522      3.059023      3.159067
  445.0     -0.511405     19.458768      3.078499      3.160462
  450.0     -0.397582     19.581260      3.097452      3.160962
  455.0     -0.282059     19.696184      3.115861      3.160778
  460.0     -0.166832     19.805561      3.133734      3.160222
  465.0     -0.054038     19.911619      3.151085      3.159635
  470.0      0.054116     20.016582      3.167921      3.159362
  475.0      0.155607     20.122463      3.184247      3.159718
  480.0      0.249225     20.230443      3.200068      3.160888
  485.0      0.334445     20.340979      3.215384      3.162948
  490.0      0.412681     20.452477      3.230187      3.165661
  495.0      0.485745     20.562924      3.244469      3.168724
  500.0      0.555092     20.670694      3.258223      3.171893
  505.0      0.622144     20.774190      3.271442      3.174930
  510.0      0.688550     20.871540      3.284115      3.177557
  515.0      0.755862     20.961001      3.296235      3.179513
  520.0      0.825027     21.041617      3.307805      3.180648
  525.0      0.896544     21.113014      3.318838      3.180891
  530.0      0.969727     21.176369      3.329371      3.180386
  535.0      1.043642     21.233183      3.339447      3.179321
  540.0      1.117553     21.284703      3.349103      3.177849
  545.0      1.190763     21.332121      3.358377      3.176117
  550.0      1.262539     21.376659      3.367306      3.174276
  555.0      1.332125     21.419579      3.375928      3.172482
  560.0      1.398720     21.462275      3.384288      3.170904
  565.0      1.461598     21.505959      3.392422      3.169692
  570.0      1.520381     21.550982      3.400328      3.168902
  575.0      1.574823     21.597372      3.407991      3.168552
  580.0      1.624860     21.644711      3.415374      3.168611
  585.0      1.670464     21.692498      3.422439      3.169040
  590.0      1.711561     21.740337      3.429151      3.169810
  595.0      1.748071     21.787851      3.435476      3.170896
  600.0      1.779925     21.834636      3.441379      3.172269
  605.0      1.807055     21.880283      3.446825      3.173899
  610.0      1.829391     21.924388      3.451779      3.175758
  615.0      1.846863     21.966551      3.456206      3.177816
  620.0      1.859402     22.006371      3.460072      3.180046
  625.0      1.866983     22.043571      3.463354      3.182425
  630.0      1.869758     22.078354      3.466079      3.184957
  635.0      1.867920     22.111044      3.468288      3.187654
  640.0      1.861660     22.141959      3.470020      3.190527
  645.0      1.851171     22.171418      3.471314      3.193586
  650.0      1.836645     22.199739      3.472211      3.196841
  655.0      1.818275     22.227244      3.472749      3.200305
  660.0      1.796254     22.254251      3.472968      3.203987
  665.0      1.770773     22.281081      3.472907      3.207899
  670.0      1.742025     22.308049      3.472605      3.212051
  675.0      1.710201     22.335475      3.472103      3.216454
  680.0      1.675496     22.363687      3.471440      3.221120
  685.0      1.638104     22.393008      3.470656      3.226059
  690.0      1.598208     22.423720      3.469786      3.231280
  695.0      1.555965     22.456018      3.468859      3.236787
  700.0      1.511448     22.489775      3.467871      3.242565
  705.0      1.464707     22.524791      3.466812      3.248597
  710.0      1.415802     22.560889      3.465673      3.254865
  715.0      1.364793     22.597900      3.464447      3.261353
  720.0      1.311737     22.635645      3.463126      3.268044
  725.0      1.256692     22.673947      3.461701      3.274920
  730.0      1.199717     22.712629      3.460163      3.281965
  735.0      1.140869     22.751514      3.458505      3.289162
  740.0      1.080207     22.790425      3.456720      3.296494
  745.0      1.017788     22.829186      3.454798      3.303943
  750.0      0.953672     22.867618      3.452732      3.311493
  755.0      0.887916     22.905543      3.450512      3.319126
  760.0      0.820577     22.942791      3.448131      3.326826
  765.0      0.751712     22.979189      3.445581      3.334577
  770.0      0.681387     23.014530      3.442853      3.342358
  775.0      0.609659     23.048638      3.439938      3.350153
  780.0      0.536551     23.081484      3.436836      3.357958
  785.0      0.462065     23.113111      3.433553      3.365775
  790.0      0.386170     23.143706      3.430102      3.373621
  795.0      0.308826     23.173482      3.426497      3.381513
  800.0      0.230003     23.202622      3.422752      3.389465
  805.0      0.149671     23.231303      3.418880      3.397492
  810.0      0.067798     23.259712      3.414895      3.405609
  815.0     -0.015648     23.288035      3.410809      3.413833
  820.0     -0.100699     23.316458      3.406635      3.422178
  825.0     -0.187386     23.345165      3.402388      3.430659
  830.0     -0.275741     23.374342      3.398080      3.439292
  835.0     -0.365796     23.404174      3.393725      3.448092
  840.0     -0.457583     23.434845      3.389335      3.457074
  845.0     -0.551133     23.466542      3.384924      3.466253
  850.0     -0.646477     23.499448      3.380506      3.475645
  855.0     -0.743648     23.533750      3.376094      3.485265
  860.0     -0.842678     23.569633      3.371701      3.495128
  865.0     -0.943598     23.607283      3.367340      3.505249
  870.0     -1.046438     23.646880      3.363025      3.515643
  875.0     -1.151229     23.688607      3.358768      3.526325
  880.0     -1.258012     23.732672      3.354584      3.537314
  885.0     -1.366820     23.779262      3.350487      3.548624
  890.0     -1.477636     23.828454      3.346484      3.560259
  895.0     -1.590417     23.880260      3.342579      3.572216
  900.0     -1.705055     23.934549      3.338768      3.584478
  905.0     -1.821430     23.991164      3.335048      3.597025
  910.0     -1.939435     24.049973      3.331415      3.609839
  915.0     -2.058965     24.110851      3.327866      3.622904
  920.0     -2.179911     24.173664      3.324397      3.636201
  925.0     -2.302164     24.238279      3.321005      3.649713
  930.0     -2.425616     24.304563      3.317687      3.663421
  935.0     -2.550158     24.372383      3.314439      3.677309
  940.0     -2.675683     24.441608      3.311258      3.691358
  945.0     -2.802082     24.512104      3.308140      3.705551
  950.0     -2.929247     24.583739      3.305082      3.719871
  955.0     -3.057070     24.656381      3.302080      3.734299
  960.0     -3.185442     24.729896      3.299132      3.748818
  965.0     -3.314255     24.804153      3.296233      3.763410
  970.0     -3.443400     24.879018      3.293381      3.778058
  975.0     -3.572770     24.954359      3.290572      3.792743
  980.0     -3.702257     25.030044      3.287802      3.807449
  985.0     -3.831751     25.105940      3.285069      3.822157
  990.0     -3.961145     25.181915      3.282368      3.836850
  995.0     -4.090330     25.257835      3.279697      3.851510
 1000.0     -4.219199     25.333569      3.277052      3.866119
 1005.0     -4.347643     25.408984      3.274429      3.880660
 1010.0     -4.475553     25.483946      3.271825      3.895115
 1015.0     -4.602819     25.558323      3.269237      3.909466
 1020.0     -4.729339     25.631986      3.266662      3.923697
 1025.0     -4.855006     25.704802      3.264096      3.937789
 1030.0     -4.979693     25.776628      3.261535      3.951722
 1035.0     -5.103299     25.847336      3.258977      3.965480
 1040.0     -5.225859     25.916879      3.256416      3.979063
 1045.0     -5.347458     25.985239      3.253848      3.992476
 1050.0     -5.468233     26.052430      3.251267      4.005732
 1055.0     -5.588332     26.118473      3.248667      4.018843
 1060.0     -5.707889     26.183381      3.246044      4.031821
 1065.0     -5.827037     26.247164      3.243392      4.044678
 1070.0     -5.945911     26.309835      3.240705      4.057425
 1075.0     -6.064648     26.371408      3.237978      4.070074
 1080.0     -6.183383     26.431895      3.235206      4.082638
 1085.0     -6.302251     26.491310      3.232383      4.095128
 1090.0     -6.421387     26.549666      3.229504      4.107556
 1095.0     -6.540927     26.606974      3.226563      4.119933
 1100.0     -6.661007     26.663249      3.223554      4.132271
 1105.0     -6.781761     26.718503      3.220473      4.144583
 1110.0     -6.903326     26.772750      3.217314      4.156880
 1115.0     -7.025836     26.826001      3.214071      4.169173
 1120.0     -7.149427     26.878271      3.210740      4.181475
 1125.0     -7.274235     26.929572      3.207314      4.193797
 1130.0     -7.400395     26.979917      3.203789      4.206152
 1135.0     -7.528042     27.029318      3.200158      4.218551
 1140.0     -7.657311     27.077789      3.196417      4.231006
 1145.0     -7.788338     27.125343      3.192560      4.243528
 1150.0     -7.921259     27.171993      3.188581      4.256130
 1155.0     -8.056209     27.217751      3.184475      4.268822
 1160.0     -8.193324     27.262631      3.180237      4.281618
 1165.0     -8.332738     27.306645      3.175861      4.294529
 1170.0     -8.474587     27.349807      3.171342      4.307567
 1175.0     -8.619007     27.392129      3.166674      4.320743
 1180.0     -8.766133     27.433625      3.161853      4.334069
 1185.0     -8.916100     27.474307      3.156872      4.347557
 1190.0     -9.069044     27.514188      3.151726      4.361219
 1195.0     -9.225100     27.553281      3.146409      4.375067
 1200.0     -9.384404     27.591599      3.140917      4.389112
 1205.0     -9.547091     27.629156      3.135244      4.403366
 1210.0     -9.713296     27.665963      3.129384      4.417842
 1215.0     -9.883155     27.702034      3.123332      4.432551
 1220.0    -10.056804     27.737381      3.117082      4.447504
 1225.0    -10.234377     27.772018      3.110630      4.462714
 1230.0    -10.416011     27.805959      3.103969      4.478192
 1235.0    -10.601840     27.839215      3.097094      4.493950
 1240.0    -10.792000     27.871800      3.090000      4.510000
 1245.0    -10.986564     27.903738      3.082686      4.526349
 1250.0    -11.185355     27.935105      3.075165      4.542987
 1255.0    -11.388133     27.965986      3.067456      4.559899
 1260.0    -11.594659     27.996469      3.059578      4.577069
 1265.0    -11.804694     28.026640      3.051548      4.594483
 1270.0    -12.017998     28.056586      3.043386      4.612125
 1275.0    -12.234331     28.086393      3.035110      4.629980
 1280.0    -12.453455     28.116148      3.026738      4.648034
 1285.0    -12.675129     28.145937      3.018288      4.666270
 1290.0    -12.899115     28.175848      3.009779      4.684675
 1295.0    -13.125172     28.205967      3.001229      4.703233
 1300.0    -13.353062     28.236381      2.992657      4.721929
 1305.0    -13.582545     28.267176      2.984081      4.740748
 1310.0    -13.813381     28.298439      2.975519      4.759674
 1315.0    -14.045331     28.330256      2.966990      4.778694
 1320.0    -14.278155     28.362715      2.958512      4.797791
 1325.0    -14.511615     28.395902      2.950104      4.816950
 1330.0    -14.745470     28.429903      2.941784      4.836157
 1335.0    -14.979482     28.464805      2.933570      4.855397
 1340.0    -15.213410     28.500695      2.925480      4.874654
 1345.0    -15.447016     28.537659      2.917534      4.893913
 1350.0    -15.680059     28.575784      2.909750      4.913160
 1355.0    -15.912299     28.615158      2.902145      4.932379
 1360.0    -16.143500     28.655865      2.894738      4.951555
 1365.0    -16.373425     28.697992      2.887547      4.970673
 1370.0    -16.601820     28.741630      2.880593      4.989718
 1375.0    -16.828443     28.786867      2.873893      5.008673
 1380.0    -17.053106     28.833770      2.867462      5.027528
 1385.0    -17.275699     28.882377      2.861308      5.046275
 1390.0    -17.496358     28.932634      2.855423      5.064920
 1395.0    -17.715276     28.984464      2.849793      5.083474
 1400.0    -17.932613     29.037803      2.844406      5.101946
 1405.0    -18.148527     29.092588      2.839253      5.120342
 1410.0    -18.363181     29.148755      2.834321      5.138673
 1415.0    -18.576742     29.206237      2.829599      5.156947
 1420.0    -18.789373     29.264968      2.825076      5.175172
 1425.0    -19.001238     29.324883      2.820740      5.193356
 1430.0    -19.212500     29.385918      2.816581      5.211509
 1435.0    -19.423323     29.448007      2.812586      5.229639
 1440.0    -19.633871     29.511085      2.808744      5.247755
 1445.0    -19.844308     29.575086      2.805044      5.265865
 1450.0    -20.054798     29.639945      2.801475      5.283977
 1455.0    -20.265505     29.705597      2.798025      5.302101
 1460.0    -20.476592     29.771977      2.794683      5.320244
 1465.0    -20.688223     29.839018      2.791437      5.338416
 1470.0    -20.900563     29.906657      2.788276      5.356625
 1475.0    -21.113775     29.974828      2.785189      5.374879
 1480.0    -21.328022     30.043465      2.782164      5.393188
 1485.0    -21.543469     30.112503      2.779191      5.411560
 1490.0    -21.760280     30.181877      2.776257      5.430003
 1495.0    -21.978618     30.251522      2.773351      5.448525
 1500.0    -22.198648     30.321372      2.770462      5.467136
 1505.0    -22.420532     30.391362      2.767578      5.485844
 1510.0    -22.644435     30.461426      2.764689      5.504658
 1515.0    -22.870521     30.531500      2.761782      5.523586
 1520.0    -23.098953     30.601519      2.758847      5.542637
 1525.0    -23.329896     30.671416      2.755872      5.561819
 1530.0    -23.563513     30.741127      2.752846      5.581141
 1535.0    -23.799968     30.810586      2.749757      5.600611
 1540.0    -24.039425     30.879728      2.746594      5.620239
 1545.0    -24.282048     30.948488      2.743345      5.640032
 1550.0    -24.528000     31.016800      2.740000      5.660000
 1555.0    -24.777404     31.084614      2.736549      5.680148
 1560.0    -25.030210     31.151939      2.732995      5.700473
 1565.0    -25.286329     31.218798      2.729342      5.720969
 1570.0    -25.545670     31.285216      2.725594      5.741629
 1575.0    -25.808144     31.351215      2.721757      5.762449
 1580.0    -26.073659     31.416819      2.717834      5.783422
 1585.0    -26.342125     31.482052      2.713831      5.804542
 1590.0    -26.613452     31.546937      2.709751      5.825804
 1595.0    -26.887550     31.611498      2.705599      5.847201
 1600.0    -27.164328     31.675759      2.701381      5.868728
 1605.0    -27.443696     31.739743      2.697100      5.890379
 1610.0    -27.725563     31.803473      2.692762      5.912147
 1615.0    -28.009839     31.866973      2.688370      5.934028
 1620.0    -28.296434     31.930268      2.683930      5.956014
 1625.0    -28.585257     31.993380      2.679445      5.978100
 1630.0    -28.876219     32.056334      2.674921      6.000280
 1635.0    -29.169228     32.119152      2.670362      6.022548
 1640.0    -29.464195     32.181859      2.665772      6.044899
 1645.0    -29.761028     32.244477      2.661156      6.067326
 1650.0    -30.059638     32.307031      2.656520      6.089824
 1655.0    -30.359934     32.369544      2.651867      6.112386
 1660.0    -30.661827     32.432039      2.647202      6.135006
 1665.0    -30.965225     32.494541      2.642529      6.157680
 1670.0    -31.270038     32.557073      2.637852      6.180400
 1675.0    -31.576175     32.619658      2.633178      6.203161
 1680.0    -31.883547     32.682320      2.628510      6.225957
 1685.0    -32.192063     32.745083      2.623853      6.248782
 1690.0    -32.501633     32.807970      2.619210      6.271630
 1695.0    -32.812167     32.871005      2.614587      6.294496
 1700.0    -33.123573     32.934212      2.609989      6.317373
 1705.0    -33.435762     32.997614      2.605420      6.340255
 1710.0    -33.748643     33.061234      2.600885      6.363137
 1715.0    -34.062126     33.125097      2.596388      6.386012
 1720.0    -34.376121     33.189225      2.591933      6.408875
 1725.0    -34.690537     33.253643      2.587526      6.431720
 1730.0    -35.005284     33.318373      2.583171      6.454540
 1735.0    -35.320271     33.383440      2.578872      6.477330
 1740.0    -35.635409     33.448868      2.574634      6.500085
 1745.0    -35.950606     33.514680      2.570462      6.522798
 1750.0    -36.265773     33.580899      2.566360      6.545463
 1755.0    -36.580818     33.647549      2.562332      6.568074
 1760.0    -36.895653     33.714653      2.558384      6.590626
 1765.0    -37.210188     33.782235      2.554520      6.613112
 1770.0    -37.524327     33.850321      2.550744      6.635526
 1775.0    -37.837993     33.918928      2.547061      6.657864
 1780.0    -38.151189     33.988043      2.543469      6.680125
 1785.0    -38.463938     34.057645      2.539967      6.702310
 1790.0    -38.776271     34.127708      2.536552      6.724421
 1795.0    -39.088222     34.198208      2.533222      6.746460
 1800.0    -39.399820     34.269119      2.529974      6.768429
 1805.0    -39.711097     34.340418      2.526806      6.790329
 1810.0    -40.022082     34.412079      2.523714      6.812161
 1815.0    -40.332808     34.484078      2.520697      6.833928
 1820.0    -40.643304     34.556390      2.517752      6.855631
 1825.0    -40.953602     34.628991      2.514877      6.877272
 1830.0    -41.263733     34.701856      2.512069      6.898853
 1835.0    -41.573727     34.774960      2.509326      6.920375
 1840.0    -41.883615     34.848279      2.506646      6.941840
 1845.0    -42.193428     34.921788      2.504025      6.963250
 1850.0    -42.503196     34.995462      2.501462      6.984606
 1855.0    -42.812951     35.069277      2.498954      7.005910
 1860.0    -43.122724     35.143208      2.496498      7.027163
 1865.0    -43.432545     35.217231      2.494092      7.048367
 1870.0    -43.742444     35.291320      2.491733      7.069525
 1875.0    -44.052454     35.365452      2.489420      7.090637
 1880.0    -44.362604     35.439601      2.487149      7.111706
 1885.0    -44.672926     35.513743      2.484918      7.132733
 1890.0    -44.983450     35.587853      2.482725      7.153719
 1895.0    -45.294207     35.661906      2.480567      7.174666
 1900.0    -45.605228     35.735879      2.478442      7.195577
 1905.0    -45.916544     35.809746      2.476347      7.216453
 1910.0    -46.228185     35.883483      2.474280      7.237295
 1915.0    -46.540183     35.957065      2.472238      7.258105
 1920.0    -46.852568     36.030467      2.470218      7.278884
 1925.0    -47.165372     36.103665      2.468219      7.299635
 1930.0    -47.478624     36.176634      2.466239      7.320359
 1935.0    -47.792356     36.249349      2.464274      7.341058
 1940.0    -48.106598     36.321786      2.462321      7.361734
 1945.0    -48.421382     36.393920      2.460379      7.382388
 1950.0    -48.736738     36.465727      2.458445      7.403021
 1955.0    -49.052697     36.537182      2.456517      7.423635
 1960.0    -49.369289     36.608260      2.454591      7.444233
 1965.0    -49.686547     36.678937      2.452666      7.464816
 1970.0    -50.004500     36.749187      2.450739      7.485386
 1975.0    -50.323179     36.818987      2.448808      7.505943
 1980.0    -50.642615     36.888311      2.446870      7.526490
 1985.0    -50.962839     36.957135      2.444923      7.547029
 1990.0    -51.283882     37.025435      2.442964      7.567562
 1995.0    -51.605775     37.093186      2.440991      7.588089
 2000.0    -51.928548     37.160362      2.439001      7.608612
 2005.0    -52.252233     37.226940      2.436992      7.629134
 2010.0    -52.576859     37.292894      2.434962      7.649656
 2015.0    -52.902458     37.358201      2.432907      7.670179
 2020.0    -53.229061     37.422835      2.430826      7.690706
 2025.0    -53.556698     37.486772      2.428716      7.711238
 2030.0    -53.885401     37.549988      2.426574      7.731776
 2035.0    -54.215200     37.612457      2.424398      7.752323
 2040.0    -54.546126     37.674155      2.422186      7.772880
 2045.0    -54.878210     37.735056      2.419935      7.793448
 2050.0    -55.211482     37.795138      2.417643      7.814029
 2055.0    -55.545973     37.854376      2.415307      7.834626
 2060.0    -55.881716     37.912742      2.412924      7.855240
 2065.0    -56.218742     37.970212      2.410492      7.875872
 2070.0    -56.557072     38.026773      2.408010      7.896523
 2075.0    -56.896723     38.082424      2.405477      7.917195
 2080.0    -57.237696     38.137183      2.402894      7.937888
 2085.0    -57.579991     38.191075      2.400263      7.958602
 2090.0    -57.923610     38.244119      2.397585      7.979336
 2095.0    -58.268555     38.296334      2.394861      8.000091
 2100.0    -58.614826     38.347739      2.392091      8.020867
 2105.0    -58.962426     38.398354      2.389278      8.041664
 2110.0    -59.311355     38.448200      2.386422      8.062483
 2115.0    -59.661616     38.497295      2.383525      8.083323
 2120.0    -60.013210     38.545660      2.380588      8.104185
 2125.0    -60.366138     38.593314      2.377612      8.125068
 2130.0    -60.720402     38.640277      2.374598      8.145973
 2135.0    -61.076004     38.686569      2.371547      8.166899
 2140.0    -61.432945     38.732210      2.368461      8.187848
 2145.0    -61.791227     38.777219      2.365341      8.208819
 2150.0    -62.150850     38.821615      2.362187      8.229812
 2155.0    -62.511817     38.865419      2.359001      8.250827
 2160.0    -62.874129     38.908650      2.355785      8.271864
 2165.0    -63.237788     38.951329      2.352540      8.292924
 2170.0    -63.602795     38.993475      2.349266      8.314007
 2175.0    -63.969151     39.035107      2.345965      8.335113
 2180.0    -64.336859     39.076245      2.342637      8.356241
 2185.0    -64.705919     39.116910      2.339285      8.377392
 2190.0    -65.076334     39.157121      2.335909      8.398566
 2195.0    -65.448104     39.196897      2.332511      8.419763
 2200.0    -65.821232     39.236258      2.329091      8.440984
 2205.0    -66.195718     39.275225      2.325652      8.462228
 2210.0    -66.571565     39.313816      2.322193      8.483496
 2215.0    -66.948773     39.352051      2.318716      8.504787
 2220.0    -67.327344     39.389951      2.315223      8.526102
 2225.0    -67.707280     39.427535      2.311715      8.547441
 2230.0    -68.088583     39.464823      2.308192      8.568804
 2235.0    -68.471254     39.501834      2.304656      8.590191
 2240.0    -68.855294     39.538588      2.301109      8.611602
 2245.0    -69.240705     39.575105      2.297551      8.633038
 2250.0    -69.627488     39.611405      2.293983      8.654498
 2255.0    -70.015645     39.647507      2.290407      8.675982
 2260.0    -70.405177     39.683432      2.286824      8.697491
 2265.0    -70.796086     39.719198      2.283235      8.719025
 2270.0    -71.188374     39.754826      2.279641      8.740584
 2275.0    -71.582042     39.790336      2.276043      8.762168
 2280.0    -71.977092     39.825746      2.272443      8.783776
 2285.0    -72.373524     39.861077      2.268841      8.805410
 2290.0    -72.771341     39.896348      2.265240      8.827069
 2295.0    -73.170544     39.931580      2.261640      8.848754
 2300.0    -73.571134     39.966792      2.258042      8.870464
 2305.0    -73.973114     40.002004      2.254448      8.892200
 2310.0    -74.376484     40.037235      2.250858      8.913962
 2315.0    -74.781246     40.072505      2.247274      8.935750
 2320.0    -75.187402     40.107834      2.243697      8.957563
 2325.0    -75.594953     40.143242      2.240128      8.979403
 2330.0    -76.003901     40.178749      2.236569      9.001269
 2335.0    -76.414247     40.214374      2.233020      9.023161
 2340.0    -76.825992     40.250136      2.229483      9.045080
 2345.0    -77.239139     40.286056      2.225959      9.067025
 2350.0    -77.653688     40.322154      2.222449      9.088997
 2355.0    -78.069642     40.358449      2.218954      9.110996
 2360.0    -78.487001     40.394960      2.215476      9.133022
 2365.0    -78.905768     40.431708      2.212016      9.155074
 2370.0    -79.325944     40.468712      2.208574      9.177154
 2375.0    -79.747530     40.505993      2.205152      9.199261
 2380.0    -80.170527     40.543569      2.201751      9.221396
 2385.0    -80.594938     40.581460      2.198373      9.243558
 2390.0    -81.020764     40.619687      2.195018      9.265747
 2395.0    -81.448007     40.658269      2.191688      9.287964
 2400.0    -81.876667     40.697226      2.188383      9.310209
 2405.0    -82.306747     40.736577      2.185106      9.332482
 2410.0    -82.738247     40.776342      2.181857      9.354783
 2415.0    -83.171169     40.816542      2.178638      9.377112
 2420.0    -83.605516     40.857195      2.175449      9.399469
 2425.0    -84.041288     40.898321      2.172292      9.421854
 2430.0    -84.478488     40.939940      2.169168      9.444268
 2435.0    -84.917116     40.982073      2.166078      9.466711
 2440.0    -85.357174     41.024738      2.163023      9.489182
 2445.0    -85.798664     41.067956      2.160005      9.511683
 2450.0    -86.241586     41.111745      2.157025      9.534212
 2455.0    -86.685943     41.156126      2.154084      9.556770
 2460.0    -87.131736     41.201119      2.151182      9.579357
 2465.0    -87.578967     41.246743      2.148322      9.601974
 2470.0    -88.027637     41.293018      2.145504      9.624620
 2475.0    -88.477747     41.339964      2.142730      9.647295
 2480.0    -88.929300     41.387600      2.140000      9.670000
 2485.0    -89.382296     41.435943      2.137316      9.692735
 2490.0    -89.836730     41.484994      2.134678      9.715499
 2495.0    -90.292598     41.534752      2.132085      9.738292
 2500.0    -90.749896     41.585214      2.129538      9.761113
 2505.0    -91.208618     41.636379      2.127035      9.783963
 2510.0    -91.668760     41.688244      2.124577      9.806841
 2515.0    -92.130317     41.740808      2.122163      9.829747
 2520.0    -92.593285     41.794069      2.119793      9.852680
 2525.0    -93.057658     41.848025      2.117467      9.875640
 2530.0    -93.523432     41.902674      2.115185      9.898626
 2535.0    -93.990601     41.958013      2.112946      9.921639
 2540.0    -94.459162     42.014042      2.110749      9.944677
 2545.0    -94.929109     42.070758      2.108595      9.967741
 2550.0    -95.400438     42.128160      2.106483      9.990830
 2555.0    -95.873144     42.186244      2.104413     10.013944
 2560.0    -96.347222     42.245010      2.102386     10.037083
 2565.0    -96.822667     42.304456      2.100400     10.060246
 2570.0    -97.299475     42.364579      2.098456     10.083432
 2575.0    -97.777640     42.425378      2.096552     10.106642
 2580.0    -98.257159     42.486851      2.094689     10.129875
 2585.0    -98.738026     42.548995      2.092866     10.153130
 2590.0    -99.220236     42.611809      2.091084     10.176408
 2595.0    -99.703785     42.675291      2.089342     10.199708
 2600.0   -100.188668     42.739440      2.087639     10.223030
 2605.0   -100.674880     42.804252      2.085976     10.246373
 2610.0   -101.162417     42.869727      2.084351     10.269737
 2615.0   -101.651273     42.935862      2.082765     10.293122
 2620.0   -102.141444     43.002656      2.081218     10.316527
 2625.0   -102.632925     43.070106      2.079709     10.339952
 2630.0   -103.125711     43.138210      2.078238     10.363396
 2635.0   -103.619798     43.206967      2.076805     10.386859
 2640.0   -104.115180     43.276375      2.075409     10.410342
 2645.0   -104.611854     43.346432      2.074050     10.433843
 2650.0   -105.109814     43.417136      2.072728     10.457363
 2655.0   -105.609055     43.488485      2.071443     10.480900
 2660.0   -106.109573     43.560476      2.070194     10.504455
 2665.0   -106.611363     43.633108      2.068981     10.528027
 2670.0   -107.114420     43.706380      2.067804     10.551615
 2675.0   -107.618739     43.780289      2.066662     10.575220
 2680.0   -108.124316     43.854833      2.065556     10.598841
 2685.0   -108.631146     43.930011      2.064485     10.622478
 2690.0   -109.139223     44.005821      2.063448     10.646131
 2695.0   -109.648544     44.082260      2.062445     10.669798
 2700.0   -110.159103     44.159326      2.061477     10.693480
 2705.0   -110.670896     44.237019      2.060543     10.717176
 2710.0   -111.183919     44.315335      2.059642     10.740887
 2715.0   -111.698165     44.394273      2.058775     10.764611
 2720.0   -112.213631     44.473831      2.057940     10.788348
 2725.0   -112.730311     44.554007      2.057138     10.812098
 2730.0   -113.248201     44.634799      2.056369     10.835861
 2735.0   -113.767296     44.716205      2.055632     10.859637
 2740.0   -114.287592     44.798224      2.054926     10.883424
 2745.0   -114.809083     44.880853      2.054252     10.907222
 2750.0   -115.331765     44.964091      2.053610     10.931032
 2755.0   -115.855633     45.047935      2.052999     10.954853
 2760.0   -116.380683     45.132384      2.052419     10.978684
 2765.0   -116.906909     45.217436      2.051869     11.002526
 2770.0   -117.434306     45.303088      2.051349     11.026377
 2775.0   -117.962870     45.389340      2.050860     11.050238
 2780.0   -118.492596     45.476188      2.050400     11.074107
 2785.0   -119.023480     45.563631      2.049969     11.097985
 2790.0   -119.555517     45.651667      2.049568     11.121872
 2795.0   -120.088701     45.740294      2.049196     11.145767
 2800.0   -120.623028     45.829511      2.048852     11.169670
 2805.0   -121.158494     45.919315      2.048536     11.193580
 2810.0   -121.695093     46.009705      2.048249     11.217497
 2815.0   -122.232821     46.100678      2.047990     11.241421
 2820.0   -122.771672     46.192232      2.047758     11.265351
 2825.0   -123.311643     46.284367      2.047553     11.289287
 2830.0   -123.852729     46.377079      2.047375     11.313229
 2835.0   -124.394924     46.470367      2.047224     11.337175
 2840.0   -124.938224     46.564228      2.047099     11.361127
 2845.0   -125.482624     46.658662      2.047000     11.385084
 2850.0   -126.028120     46.753666      2.046927     11.409045
 2855.0   -126.574706     46.849238      2.046880     11.433009
 2860.0   -127.122378     46.945376      2.046858     11.456977
 2865.0   -127.671131     47.042078      2.046861     11.480948
 2870.0   -128.220960     47.139343      2.046889     11.504922
 2875.0   -128.771861     47.237168      2.046941     11.528899
 2880.0   -129.323828     47.335552      2.047018     11.552878
 2885.0   -129.876857     47.434493      2.047119     11.576858
 2890.0   -130.430943     47.533988      2.047243     11.600840
 2895.0   -130.986082     47.634036      2.047390     11.624823
 2900.0   -131.542269     47.734634      2.047561     11.648806
 2905.0   -132.099498     47.835782      2.047755     11.672790
 2910.0   -132.657765     47.937477      2.047971     11.696775
 2915.0   -133.217066     48.039717      2.048209     11.720759
 2920.0   -133.777395     48.142500      2.048469     11.744742
 2925.0   -134.338748     48.245824      2.048751     11.768724
 2930.0   -134.901121     48.349688      2.049055     11.792704
 2935.0   -135.464507     48.454089      2.049380     11.816683
 2940.0   -136.028903     48.559025      2.049725     11.840660
 2945.0   -136.594303     48.664495      2.050091     11.864635
 2950.0   -137.160703     48.770497      2.050478     11.888607
 2955.0   -137.728099     48.877029      2.050885     11.912576
 2960.0   -138.296485     48.984088      2.051311     11.936541
 2965.0   -138.865856     49.091674      2.051757     11.960502
 2970.0   -139.436208     49.199783      2.052222     11.984459
 2975.0   -140.007536     49.308414      2.052706     12.008412
 2980.0   -140.579836     49.417565      2.053209     12.032360
 2985.0   -141.153102     49.527235      2.053730     12.056303
 2990.0   -141.727330     49.637421      2.054270     12.080240
 2995.0   -142.302515     49.748121      2.054828     12.104171
 3000.0   -142.878652     49.859334      2.055403     12.128096
 3050.0   -148.691338     50.999225      2.062061     12.366924
 3100.0   -154.594004     52.188250      2.070175     12.604744
 3150.0   -160.582443     53.424437      2.079512     12.841278
 3200.0   -166.654603     54.705625      2.089985     13.076516
 3250.0   -172.808967     56.029605      2.101543     13.310516
 3300.0   -179.044003     57.394169      2.114137     13.543336
 3350.0   -185.358174     58.797110      2.127715     13.775032
 3400.0   -191.749950     60.236221      2.142228     14.005659
 3450.0   -198.217799     61.709293      2.157624     14.235274
 3500.0   -204.760190     63.214118      2.173853     14.463933
 3550.0   -211.375591     64.748489      2.190864     14.691694
 3600.0   -218.062471     66.310198      2.208608     14.918612
 3650.0   -224.819298     67.897038      2.227034     15.144744
 3700.0   -231.644537     69.506799      2.246090     15.370146
 3750.0   -238.536657     71.137273      2.265727     15.594875
 3800.0   -245.494135     72.786260      2.285893     15.818988
 3850.0   -252.515443     74.451555      2.306539     16.042540
 3900.0   -259.599011     76.130917      2.327614     16.265588
 3950.0   -266.743298     77.822130      2.349067     16.488189
 4000.0   -273.946912     79.523109      2.370848     16.710399
 4050.0   -281.208359     81.231680      2.392909     16.932273
 4100.0   -288.525584     82.945173      2.415192     17.153871
 4150.0   -295.897228     84.661532      2.437649     17.375248
 4200.0   -303.325275     86.381666      2.460267     17.596448
 4250.0   -310.812937     88.107568      2.483045     17.817511
 4300.0   -318.364978     89.842609      2.505999     18.038473
 4350.0   -325.986459     91.590423      2.529148     18.259367
 4400.0   -333.682064     93.354309      2.552506     18.480229
 4450.0   -341.456407     95.137505      2.576088     18.701093
 4500.0   -349.314204     96.943338      2.599909     18.921994
 4550.0   -357.260189     98.775153      2.623985     19.142968
 4600.0   -365.299069    100.636269      2.648331     19.364050
 4650.0   -373.435546    102.530001      2.672961     19.585274
 4700.0   -381.674329    104.459672      2.697892     19.806675
 4750.0   -390.020130    106.428605      2.723138     20.028289
 4800.0   -398.477656    108.440121      2.748715     20.250151
 4850.0   -407.051616    110.497541      2.774637     20.472295
 4900.0   -415.746719    112.604186      2.800921     20.694756
 4950.0   -424.567674    114.763379      2.827581     20.917570
 5000.0   -433.519189    116.978440      2.854633     21.140771
 5050.0   -442.605974    119.252692      2.882091     21.364395
 5100.0   -451.832738    121.589455      2.909970     21.588477
 5150.0   -461.204189    123.992051      2.938287     21.813051
 5200.0   -470.725036    126.463802      2.967056     22.038153
 5250.0   -480.399988    129.008029      2.996293     22.263817
 5300.0   -490.233754    131.628054      3.026012     22.490078
 5350.0   -500.231042    134.327198      3.056229     22.716972
 5400.0   -510.396562    137.108783      3.086959     22.944534
 5450.0   -520.735022    139.976130      3.118217     23.172799
 5500.0   -531.251132    142.932560      3.150019     23.401801
 5550.0   -541.949599    145.981395      3.182379     23.631575
 5600.0   -552.835133    149.125957      3.215314     23.862157
 5650.0   -563.912443    152.369567      3.248838     24.093582
 5700.0   -575.186237    155.715547      3.282966     24.325884
 5750.0   -586.661225    159.167218      3.317713     24.559099
 5800.0   -598.342114    162.727901      3.353095     24.793261
 5850.0   -610.233614    166.400918      3.389127     25.028406
 5900.0   -622.340435    170.189591      3.425825     25.264568
 5950.0   -634.667286    174.097241      3.463202     25.501783
 6000.0   -647.218871    178.127189      3.501275     25.740086
 6050.0   -659.999898    182.282755      3.540059     25.979511
 6100.0   -673.015092    186.567267      3.579569     26.220094
 6150.0   -686.269165    190.984050      3.619820     26.461869
 6200.0   -699.766770    195.536397      3.660828     26.704872
 6250.0   -713.510760    200.226672      3.702602     26.949122
 6300.0   -727.496833    205.053548      3.745137     27.194582
 6350.0   -741.718916    210.014785      3.788421     27.441198
 6400.0   -756.170990    215.108172      3.832444     27.688919
 6450.0   -770.847047    220.331502      3.877195     27.937693
 6500.0   -785.741064    225.682562      3.922663     28.187469
 6550.0   -800.847016    231.159136      3.968838     28.438193
 6600.0   -816.158881    236.759010      4.015709     28.689815
 6650.0   -831.670638    242.479972      4.063265     28.942282
 6700.0   -847.376265    248.319808      4.111494     29.195542
 6750.0   -863.269739    254.276305      4.160387     29.449544
 6800.0   -879.345040    260.347250      4.209932     29.704235
 6850.0   -895.596145    266.530428      4.260119     29.959564
 6900.0   -912.017033    272.823627      4.310938     30.215478
 6950.0   -928.601680    279.224632      4.362377     30.471926
 7000.0   -945.344066    285.731231      4.414425     30.728855
 7050.0   -962.238168    292.341210      4.467072     30.986214
 7100.0   -979.277965    299.052356      4.520308     31.243950
 7150.0   -996.457435    305.862455      4.574121     31.502013
 7200.0  -1013.770555    312.769294      4.628500     31.760349
 7250.0  -1031.211304    319.770659      4.683434     32.018907
 7300.0  -1048.773660    326.864336      4.738914     32.277635
 7350.0  -1066.451601    334.048113      4.794928     32.536481
 7400.0  -1084.239105    341.319776      4.851466     32.795393
 7450.0  -1102.130150    348.677111      4.908516     33.054319
 7500.0  -1120.118714    356.117905      4.966068     33.313207
 7550.0  -1138.198776    363.639944      5.024111     33.572005
 7600.0  -1156.364313    371.241016      5.082635     33.830662
 7650.0  -1174.609303    378.918906      5.141628     34.089124
 7700.0  -1192.927725    386.671402      5.201080     34.347341
 7750.0  -1211.313556    394.496289      5.260980     34.605260
 7800.0  -1229.760776    402.391355      5.321318     34.862830
 7850.0  -1248.263362    410.354385      5.382082     35.119998
 7900.0  -1266.815291    418.383167      5.443261     35.376713
 7950.0  -1285.410542    426.475486      5.504846     35.632922
 8000.0  -1304.043093    434.629130      5.566825     35.888574
 8050.0  -1322.706922    442.841885      5.629188     36.143617
 8100.0  -1341.396008    451.111538      5.691923     36.397998
 8150.0  -1360.104328    459.435875      5.755020     36.651666
 8200.0  -1378.825860    467.812682      5.818468     36.904569
 8250.0  -1397.554583    476.239746      5.882257     37.156655
 8300.0  -1416.284474    484.714854      5.946375     37.407871
 8350.0  -1435.009512    493.235793      6.010812     37.658167
 8400.0  -1453.723675    501.800348      6.075558     37.907489
 8450.0  -1472.420941    510.406307      6.140601     38.155786
 8500.0  -1491.095287    519.051455      6.205930     38.403007
 8550.0  -1509.740693    527.733580      6.271535     38.649099
 8600.0  -1528.351135    536.450468      6.337405     38.894010
 8650.0  -1546.920592    545.199906      6.403529     39.137688
 8700.0  -1565.443043    553.979680      6.469897     39.380081
 8750.0  -1583.912465    562.787576      6.536498     39.621138
 8800.0  -1602.322837    571.621382      6.603321     39.860806
 8850.0  -1620.668136    580.478883      6.670355     40.099034
 8900.0  -1638.942341    589.357867      6.737589     40.335769
 8950.0  -1657.139430    598.256120      6.805013     40.570960
 9000.0  -1675.253380    607.171428      6.872616     40.804554
 9050.0  -1693.278170    616.101578      6.940387     41.036500
 9100.0  -1711.207778    625.044356      7.008315     41.266745
 9150.0  -1729.036182    633.997550      7.076390     41.495238
 9200.0  -1746.757360    642.958945      7.144601     41.721927
 9250.0  -1764.365290    651.926328      7.212937     41.946760
 9300.0  -1781.853950    660.897486      7.281388     42.169685
 9350.0  -1799.217319    669.870206      7.349942     42.390650
 9400.0  -1816.449375    678.842273      7.418588     42.609603
 9450.0  -1833.544095    687.811474      7.487317     42.826492
 9500.0  -1850.495457    696.775596      7.556117     43.041264
 9550.0  -1867.297439    705.732426      7.624977     43.253869
 9600.0  -1883.944021    714.679750      7.693887     43.464254
 9650.0  -1900.429180    723.615354      7.762836     43.672367
 9700.0  -1916.746894    732.537025      7.831814     43.878157
 9750.0  -1932.891141    741.442550      7.900809     44.081571
 9800.0  -1948.855898    750.329715      7.969810     44.282557
 9850.0  -1964.635145    759.196307      8.038807     44.481064
 9900.0  -1980.222859    768.040112      8.107789     44.677039
 9950.0  -1995.613018    776.858917      8.176746     44.870431
10000.0  -2010.799601    785.650508      8.245666     45.061188
10050.0  -2025.776586    794.412672      8.314540     45.249257
10100.0  -2040.537950    803.143196      8.383355     45.434586
10150.0  -2055.077672    811.839866      8.452101     45.617125
10200.0  -2069.389729    820.500468      8.520768     45.796820
10250.0  -2083.468100    829.122789      8.589345     45.973620
10300.0  -2097.306764    837.704616      8.657821     46.147472
10350.0  -2110.899698    846.243735      8.726185     46.318326
10400.0  -2124.240879    854.737933      8.794426     46.486129
10450.0  -2137.324286    863.184997      8.862534     46.650828
10500.0  -2150.143898    871.582712      8.930498     46.812373
10550.0  -2162.693693    879.928866      8.998307     46.970711
10600.0  -2174.967648    888.221244      9.065951     47.125791
10650.0  -2186.959741    896.457634      9.133418     47.277559
10700.0  -2198.663951    904.635822      9.200698     47.425964
10750.0  -2210.074255    912.753594      9.267780     47.570955
10800.0  -2221.184633    920.808738      9.334654     47.712480
10850.0  -2231.989062    928.799039      9.401308     47.850485
10900.0  -2242.481519    936.722285      9.467732     47.984920
10950.0  -2252.655983    944.576261      9.533915     48.115733
11000.0  -2262.506432    952.358755      9.599846     48.242871
11050.0  -2272.026845    960.067553      9.665515     48.366283
11100.0  -2281.211199    967.700441      9.730910     48.485917
11150.0  -2290.053472    975.255206      9.796021     48.601720
11200.0  -2298.547643    982.729634      9.860838     48.713641
11250.0  -2306.687689    990.121513      9.925349     48.821628
11300.0  -2314.467589    997.428628      9.989543     48.925628
11350.0  -2321.881321   1004.648767     10.053410     49.025591
11400.0  -2328.922862   1011.779715     10.116940     49.121463
11450.0  -2335.586192   1018.819259     10.180121     49.213193
11500.0  -2341.865287   1025.765186     10.242943     49.300730
11550.0  -2347.754126   1032.615282     10.305395     49.384021
11600.0  -2353.246688   1039.367335     10.367465     49.463014
11650.0  -2358.336950   1046.019130     10.429144     49.537657
11700.0  -2363.018890   1052.568454     10.490420     49.607898
11750.0  -2367.286486   1059.013094     10.551283     49.673685
11800.0  -2371.133717   1065.350835     10.611722     49.734967
11850.0  -2374.554561   1071.579465     10.671726     49.791691
11900.0  -2377.542995   1077.696770     10.731285     49.843806
11950.0  -2380.092998   1083.700537     10.790387     49.891260
12000.0  -2382.198547   1089.588553     10.849023     49.934000
12050.0  -2383.853621   1095.358603     10.907181     49.971974
12100.0  -2385.052199   1101.008475     10.964850     50.005131
12150.0  -2385.788258   1106.535954     11.022020     50.033419
12200.0  -2386.055776   1111.938828     11.078679     50.056785
12250.0  -2385.848731   1117.214883     11.134817     50.075179
12300.0  -2385.161101   1122.361906     11.190424     50.088547
12350.0  -2383.986865   1127.377683     11.245489     50.096838
12400.0  -2382.320000   1132.260000     11.300000     50.100000
12450.0  -2380.168797   1137.010668     11.353955     50.098116
12500.0  -2377.598798   1141.647594     11.407379     50.091809
12550.0  -2374.689856   1146.192708     11.460307     50.081839
12600.0  -2371.521824   1150.667939     11.512772     50.068962
12650.0  -2368.174557   1155.095217     11.564808     50.053937
12700.0  -2364.727908   1159.496473     11.616448     50.037523
12750.0  -2361.261731   1163.893637     11.667726     50.020479
12800.0  -2357.855880   1168.308639     11.718676     50.003562
12850.0  -2354.590208   1172.763409     11.769331     49.987531
12900.0  -2351.544569   1177.279878     11.819726     49.973143
12950.0  -2348.798817   1181.879974     11.869894     49.961158
13000.0  -2346.432806   1186.585629     11.919868     49.952334
13050.0  -2344.526388   1191.418772     11.969683     49.947429
13100.0  -2343.159419   1196.401334     12.019371     49.947202
13150.0  -2342.411754   1201.555245     12.068966     49.952411
13200.0  -2342.363240   1206.902434     12.118503     49.963814
13250.0  -2343.093727   1212.464830     12.168015     49.982169
13300.0  -2344.683097   1218.264370     12.217536     50.008236
13350.0  -2347.211210   1224.322986     12.267099     50.042772
13400.0  -2350.757821   1230.662582     12.316738     50.086535
13450.0  -2355.402758   1237.305081     12.366487     50.140283
13500.0  -2361.226241   1244.272511     12.416379     50.204778
13550.0  -2368.308221   1251.586828     12.466448     50.280779
13600.0  -2376.727187   1259.269598     12.516728     50.369031
13650.0  -2386.562628   1267.342655     12.567251     50.470290
13700.0  -2397.899489   1275.829284     12.618054     50.585362
13750.0  -2410.818783   1284.751724     12.669170     50.715017
13800.0  -2425.380338   1294.126573     12.720627     50.859822
13850.0  -2441.615091   1303.962739     12.772444     51.020071
13900.0  -2459.459600   1314.244002     12.824610     51.195162
13950.0  -2478.829636   1324.948608     12.877111     51.384293
14000.0  -2499.652212   1336.057797     12.929932     51.586771
14050.0  -2521.856400   1347.553355     12.983062     51.801921
14100.0  -2545.368257   1359.416267     13.036488     52.029040
14150.0  -2570.113292   1371.627373     13.090197     52.267421
14200.0  -2596.017818   1384.167726     13.144176     52.516364
14250.0  -2623.008299   1397.018417     13.198412     52.775168
14300.0  -2651.010979   1410.160482     13.252892     53.043133
14350.0  -2679.952065   1423.574946     13.307603     53.319558
14400.0  -2709.757822   1437.242848     13.362533     53.603741
14450.0  -2740.354525   1451.145231     13.417667     53.894982
14500.0  -2771.668432   1465.263133     13.472994     54.192579
14550.0  -2803.625801   1479.577593     13.528500     54.495832
14600.0  -2836.152891   1494.069650     13.584173     54.804041
14650.0  -2869.175965   1508.720342     13.639999     55.116504
14700.0  -2902.621283   1523.510709     13.695966     55.432519
14750.0  -2936.415105   1538.421788     13.752061     55.751386
14800.0  -2970.483691   1553.434620     13.808270     56.072404
14850.0  -3004.753302   1568.530243     13.864581     56.394872
14900.0  -3039.150198   1583.689696     13.920981     56.718091
14950.0  -3073.600640   1598.894019     13.977457     57.041359
