#Lambda        Dielectric Constant          Refractive Index
# [nm]        [Real]        [Imag]        [Real]        [Imag]
  160.0     -0.420892      2.144100      0.939192      1.141188
  165.0     -0.553628      2.180531      0.920977      1.184195
  170.0     -0.694964      2.255343      0.912450      1.236041
  175.0     -0.847913      2.354747      0.909641      1.294390
  180.0     -1.015490      2.464954      0.908582      1.356908
  185.0     -1.196915      2.580296      0.907835      1.421668
  190.0     -1.376242      2.727591      0.916092      1.488375
  195.0     -1.535526      2.931455      0.941511      1.556133
  200.0     -1.664000      3.175200      0.980000      1.620000
  205.0     -1.752798      3.432019      1.024910      1.674427
  210.0     -1.793481      3.675947      1.071624      1.715481
  215.0     -1.784408      3.885997      1.116238      1.741372
  220.0     -1.750688      4.060266      1.155661      1.757277
  225.0     -1.720570      4.201607      1.187400      1.769400
  230.0     -1.708095      4.312819      1.210553      1.781085
  235.0     -1.721060      4.397951      1.225165      1.794523
  240.0     -1.756483      4.466096      1.233493      1.810162
  245.0     -1.809256      4.527069      1.238173      1.828073
  250.0     -1.876558      4.588537      1.241141      1.848570
  255.0     -1.956212      4.656401      1.243892      1.871894
  260.0     -2.046334      4.731666      1.246844      1.897752
  265.0     -2.145099      4.814306      1.250191      1.925739
  270.0     -2.250612      4.905085      1.254294      1.955527
  275.0     -2.361095      5.004644      1.259481      1.986802
  280.0     -2.475308      5.112347      1.265786      2.019229
  285.0     -2.592328      5.226938      1.273093      2.052473
  290.0     -2.711948      5.345952      1.280990      2.086226
  295.0     -2.834090      5.466574      1.288986      2.120171
  300.0     -2.958460      5.585811      1.296586      2.153932
  305.0     -3.084865      5.701440      1.303417      2.187226
  310.0     -3.213723      5.814506      1.309611      2.220202
  315.0     -3.345681      5.927179      1.315471      2.253162
  320.0     -3.481706      6.042866      1.321485      2.286586
  325.0     -3.622672      6.164968      1.328149      2.320939
  330.0     -3.768780      6.295637      1.335791      2.356443
  335.0     -3.919787      6.436278      1.344646      2.393172
  340.0     -4.074354      6.586553      1.354728      2.430841
  345.0     -4.230907      6.745791      1.366013      2.469092
  350.0     -4.388024      6.913719      1.378531      2.507621
  355.0     -4.544363      7.090015      1.392299      2.546142
  360.0     -4.698747      7.273764      1.407235      2.584396
  365.0     -4.850035      7.463785      1.423212      2.622128
  370.0     -4.997057      7.658419      1.440036      2.659078
  375.0     -5.138813      7.856038      1.457505      2.695020
  380.0     -5.274999      8.055604      1.475464      2.729860
  385.0     -5.405738      8.256394      1.493782      2.763587
  390.0     -5.532152      8.458355      1.512367      2.796380
  395.0     -5.655564      8.661572      1.531136      2.828457
  400.0     -5.777100      8.866000      1.550000      2.860000
  405.0     -5.897548      9.071634      1.568894      2.891143
  410.0     -6.016542      9.278739      1.587868      2.921876
  415.0     -6.133421      9.487662      1.607002      2.952154
  420.0     -6.247509      9.698793      1.626381      2.981931
  425.0     -6.358129      9.912482      1.646086      3.011160
  430.0     -6.464617     10.128886      1.666176      3.039782
  435.0     -6.566304     10.348297      1.686724      3.067747
  440.0     -6.662480     10.571742      1.707890      3.095043
  445.0     -6.752499     10.799241      1.729716      3.121607
  450.0     -6.835993     11.026059      1.751677      3.147121
  455.0     -6.912731     11.245996      1.773071      3.171195
  460.0     -6.982734     11.451758      1.793056      3.193402
  465.0     -7.046558     11.637810      1.810961      3.213483
  470.0     -7.106631     11.806738      1.826942      3.231889
  475.0     -7.165826     11.963021      1.841350      3.249235
  480.0     -7.226917     12.110594      1.854478      3.266091
  485.0     -7.292657     12.253291      1.866608      3.283021
  490.0     -7.365828     12.395093      1.878039      3.300598
  495.0     -7.449216     12.540006      1.889071      3.319400
  500.0     -7.545600     12.692000      1.900000      3.340000
  505.0     -7.657031     12.854190      1.911069      3.362830
  510.0     -7.782652     13.026324      1.922310      3.387753
  515.0     -7.920881     13.207306      1.933700      3.414492
  520.0     -8.070136     13.396046      1.945218      3.442771
  525.0     -8.228835     13.591448      1.956842      3.472312
  530.0     -8.395383     13.792390      1.968549      3.502833
  535.0     -8.568194     13.997770      1.980316      3.534056
  540.0     -8.745729     14.206581      1.992128      3.565717
  545.0     -8.926601     14.418133      2.003990      3.597593
  550.0     -9.109984     14.632898      2.015985      3.629622
  555.0     -9.295183     14.851620      2.028217      3.661777
  560.0     -9.481470     15.074970      2.040782      3.694024
  565.0     -9.668109     15.303605      2.053778      3.726326
  570.0     -9.854373     15.538203      2.067301      3.758647
  575.0    -10.039537     15.779446      2.081450      3.790954
  580.0    -10.222876     16.028006      2.096322      3.823212
  585.0    -10.403664     16.284555      2.112014      3.855386
  590.0    -10.581163     16.549787      2.128628      3.887442
  595.0    -10.754733     16.824246      2.146241      3.919346
  600.0    -10.924143     17.107853      2.164838      3.951078
  605.0    -11.089265     17.400370      2.184382      3.982620
  610.0    -11.249986     17.701537      2.204832      4.013954
  615.0    -11.406196     18.011092      2.226147      4.045063
  620.0    -11.557781     18.328774      2.248285      4.075930
  625.0    -11.704625     18.654327      2.271207      4.106536
  630.0    -11.846619     18.987499      2.294872      4.136864
  635.0    -11.983649     19.328034      2.319239      4.166897
  640.0    -12.115590     19.675644      2.344267      4.196615
  645.0    -12.242324     20.030065      2.369914      4.226000
  650.0    -12.363785     20.391144      2.396145      4.255043
  655.0    -12.479830     20.758560      2.422916      4.283720
  660.0    -12.589971     21.131193      2.450152      4.311953
  665.0    -12.693607     21.507660      2.477770      4.339642
  670.0    -12.790026     21.886324      2.505675      4.366672
  675.0    -12.878493     22.265496      2.533773      4.392921
  680.0    -12.958295     22.643547      2.561970      4.418274
  685.0    -13.028728     23.018863      2.590172      4.442615
  690.0    -13.089109     23.389838      2.618286      4.465830
  695.0    -13.138733     23.754844      2.646220      4.487804
  700.0    -13.176801     24.112175      2.673877      4.508411
  705.0    -13.202582     24.460184      2.701164      4.527532
  710.0    -13.215719     24.797550      2.727995      4.545091
  715.0    -13.216544     25.123564      2.754303      4.561093
  720.0    -13.207782     25.439630      2.780080      4.575822
  725.0    -13.192702     25.747630      2.805334      4.589624
  730.0    -13.174369     26.049249      2.830064      4.602821
  735.0    -13.155788     26.346132      2.854269      4.615729
  740.0    -13.139945     26.639957      2.877953      4.628663
  745.0    -13.129891     26.932426      2.901116      4.641946
  750.0    -13.128972     27.225307      2.923754      4.655924
  755.0    -13.139755     27.520163      2.945877      4.670875
  760.0    -13.161412     27.817667      2.967575      4.686769
  765.0    -13.192146     28.118237      2.988957      4.703489
  770.0    -13.229674     28.422165      3.010146      4.720872
  775.0    -13.271626     28.729717      3.031264      4.738749
  780.0    -13.315757     29.041195      3.052431      4.756960
  785.0    -13.359847     29.356905      3.073768      4.775350
  790.0    -13.401640     29.677144      3.095394      4.793760
  795.0    -13.438875     30.002210      3.117431      4.812030
  800.0    -13.469300     30.332400      3.140000      4.830000
  805.0    -13.491102     30.667770      3.163185      4.847535
  810.0    -13.504213     31.007404      3.186930      4.864591
  815.0    -13.509001     31.350140      3.211142      4.881148
  820.0    -13.505836     31.694818      3.235730      4.897186
  825.0    -13.495087     32.040276      3.260600      4.912684
  830.0    -13.477123     32.385355      3.285661      4.927622
  835.0    -13.452314     32.728894      3.310820      4.941979
  840.0    -13.421029     33.069732      3.335986      4.955736
  845.0    -13.383636     33.406706      3.361065      4.968872
  850.0    -13.340506     33.738662      3.385966      4.981367
  855.0    -13.292009     34.064441      3.410597      4.993200
  860.0    -13.238508     34.382860      3.434864      5.004350
  865.0    -13.180369     34.692754      3.458675      5.014796
  870.0    -13.117991     34.993042      3.481942      5.024524
  875.0    -13.051751     35.282586      3.504574      5.033514
  880.0    -12.981906     35.559922      3.526462      5.041726
  885.0    -12.908819     35.823868      3.547514      5.049138
  890.0    -12.833380     36.074684      3.567708      5.055824
  895.0    -12.756779     36.313447      3.587064      5.061910
  900.0    -12.680867     36.543072      3.605695      5.067644
  905.0    -12.607646     36.766864      3.623731      5.073299
  910.0    -12.539053     36.987855      3.641287      5.079134
  915.0    -12.476950     37.208943      3.658474      5.085394
  920.0    -12.422964     37.432756      3.675395      5.092301
  925.0    -12.378259     37.661303      3.692134      5.100017
  930.0    -12.342374     37.894386      3.708701      5.108502
  935.0    -12.314486     38.131310      3.725092      5.117672
  940.0    -12.293936     38.371607      3.741310      5.127463
  945.0    -12.280093     38.614851      3.757358      5.137813
  950.0    -12.272285     38.860553      3.773239      5.148658
  955.0    -12.269829     39.108216      3.788954      5.159930
  960.0    -12.272058     39.357359      3.804505      5.171564
  965.0    -12.278304     39.607503      3.819894      5.183495
  970.0    -12.287892     39.858159      3.835124      5.195656
  975.0    -12.300151     40.108842      3.850196      5.207982
  980.0    -12.314422     40.359086      3.865112      5.220409
  985.0    -12.330039     40.608412      3.879876      5.232872
  990.0    -12.346286     40.856276      3.894487      5.245299
  995.0    -12.362540     41.102259      3.908949      5.257631
 1000.0    -12.378612     41.346512      3.923279      5.269860
 1005.0    -12.394443     41.589357      3.937495      5.281995
 1010.0    -12.410065     41.831235      3.951621      5.294054
 1015.0    -12.425526     42.072609      3.965679      5.306060
 1020.0    -12.440849     42.313913      3.979691      5.318029
 1025.0    -12.456056     42.555573      3.993679      5.329980
 1030.0    -12.471172     42.798024      4.007665      5.341931
 1035.0    -12.486227     43.041703      4.021672      5.353902
 1040.0    -12.501245     43.287045      4.035722      5.365910
 1045.0    -12.516253     43.534483      4.049836      5.377974
 1050.0    -12.531277     43.784453      4.064038      5.390113
 1055.0    -12.546344     44.037389      4.078349      5.402344
 1060.0    -12.561479     44.293725      4.092792      5.414687
 1065.0    -12.576710     44.553896      4.107389      5.427160
 1070.0    -12.592061     44.818338      4.122161      5.439782
 1075.0    -12.607559     45.087485      4.137131      5.452570
 1080.0    -12.623231     45.361771      4.152322      5.465544
 1085.0    -12.639103     45.641631      4.167755      5.478722
 1090.0    -12.655201     45.927499      4.183453      5.492122
 1095.0    -12.671550     46.219809      4.199438      5.505763
 1100.0    -12.688179     46.519000      4.215731      5.519664
 1105.0    -12.705115     46.825507      4.232355      5.533843
 1110.0    -12.722375     47.139751      4.249333      5.548318
 1115.0    -12.739982     47.462162      4.266686      5.563107
 1120.0    -12.758000     47.793230      4.284438      5.578232
 1125.0    -12.776462     48.133400      4.302611      5.593712
 1130.0    -12.795237     48.482875      4.321221      5.609550
 1135.0    -12.814050     48.841651      4.340278      5.625732
 1140.0    -12.832215     49.209122      4.359776      5.642202
 1145.0    -12.848961     49.584558      4.379704      5.658895
 1150.0    -12.863582     49.967322      4.400055      5.675751
 1155.0    -12.875382     50.356795      4.420822      5.692713
 1160.0    -12.883649     50.752332      4.441997      5.709723
 1165.0    -12.887668     51.153284      4.463572      5.726720
 1170.0    -12.886727     51.559009      4.485539      5.743646
 1175.0    -12.880118     51.968865      4.507891      5.760441
 1180.0    -12.867128     52.382209      4.530621      5.777047
 1185.0    -12.847046     52.798398      4.553720      5.793404
 1190.0    -12.819161     53.216790      4.577181      5.809452
 1195.0    -12.782762     53.636741      4.600996      5.825133
 1200.0    -12.737138     54.057609      4.625158      5.840389
 1205.0    -12.681577     54.478750      4.649658      5.855160
 1210.0    -12.615369     54.899522      4.674489      5.869386
 1215.0    -12.537802     55.319282      4.699644      5.883008
 1220.0    -12.448166     55.737387      4.725115      5.895968
 1225.0    -12.345749     56.153194      4.750893      5.908206
 1230.0    -12.229839     56.566061      4.776972      5.919664
 1235.0    -12.099727     56.975344      4.803344      5.930282
 1240.0    -11.954700     57.380400      4.830000      5.940000
 1245.0    -11.794278     57.780667      4.856930      5.948775
 1250.0    -11.618902     58.175898      4.884107      5.956620
 1255.0    -11.429243     58.565928      4.911502      5.963564
 1260.0    -11.225971     58.950592      4.939084      5.969635
 1265.0    -11.009759     59.329724      4.966823      5.974862
 1270.0    -10.781277     59.703157      4.994689      5.979273
 1275.0    -10.541197     60.070726      5.022652      5.982896
 1280.0    -10.290190     60.432266      5.050683      5.985760
 1285.0    -10.028927     60.787610      5.078751      5.987894
 1290.0     -9.758078     61.136593      5.106826      5.989326
 1295.0     -9.478315     61.479048      5.134878      5.990084
 1300.0     -9.190310     61.814811      5.162876      5.990196
 1305.0     -8.894734     62.143715      5.190792      5.989691
 1310.0     -8.592257     62.465595      5.218595      5.988598
 1315.0     -8.283551     62.780285      5.246255      5.986945
 1320.0     -7.969287     63.087619      5.273742      5.984761
 1325.0     -7.650136     63.387431      5.301026      5.982074
 1330.0     -7.326769     63.679555      5.328077      5.978912
 1335.0     -6.999858     63.963826      5.354865      5.975303
 1340.0     -6.670074     64.240079      5.381359      5.971277
 1345.0     -6.338087     64.508147      5.407531      5.966861
 1350.0     -6.004570     64.767864      5.433349      5.962085
 1355.0     -5.670195     65.019064      5.458784      5.956977
 1360.0     -5.335626     65.261583      5.483806      5.951564
 1365.0     -5.001534     65.495257      5.508385      5.945875
 1370.0     -4.668613     65.719911      5.532490      5.939940
 1375.0     -4.337538     65.935377      5.556091      5.933787
 1380.0     -4.008892     66.141524      5.579162      5.927441
 1385.0     -3.683129     66.338272      5.601685      5.920921
 1390.0     -3.360288     66.525703      5.623664      5.914230
 1395.0     -3.040314     66.703938      5.645108      5.907366
 1400.0     -2.723203     66.873075      5.666024      5.900329
 1405.0     -2.408959     67.033212      5.686416      5.893120
 1410.0     -2.097573     67.184450      5.706293      5.885738
 1415.0     -1.789033     67.326892      5.725661      5.878185
 1420.0     -1.483332     67.460639      5.744526      5.870460
 1425.0     -1.180463     67.585791      5.762894      5.862564
 1430.0     -0.880419     67.702450      5.780773      5.854496
 1435.0     -0.583190     67.810718      5.798169      5.846257
 1440.0     -0.288768     67.910695      5.815088      5.837847
 1445.0      0.002854     68.002483      5.831537      5.829266
 1450.0      0.291684     68.086182      5.847523      5.820515
 1455.0      0.577730     68.161895      5.863052      5.811594
 1460.0      0.861001     68.229723      5.878130      5.802503
 1465.0      1.141503     68.289766      5.892765      5.793241
 1470.0      1.419246     68.342126      5.906962      5.783810
 1475.0      1.694237     68.386904      5.920729      5.774209
 1480.0      1.966484     68.424202      5.934071      5.764440
 1485.0      2.235995     68.454120      5.946996      5.754502
 1490.0      2.502778     68.476760      5.959510      5.744394
 1495.0      2.766841     68.492223      5.971620      5.734117
 1500.0      3.028192     68.500611      5.983331      5.723672
 1505.0      3.286839     68.502024      5.994651      5.713059
 1510.0      3.542791     68.496564      6.005586      5.702278
 1515.0      3.796054     68.484332      6.016143      5.691329
 1520.0      4.046637     68.465430      6.026328      5.680212
 1525.0      4.294547     68.439958      6.036148      5.668928
 1530.0      4.539794     68.408018      6.045609      5.657476
 1535.0      4.782385     68.369711      6.054719      5.645857
 1540.0      5.022328     68.325138      6.063483      5.634071
 1545.0      5.259630     68.274401      6.071908      5.622119
 1550.0      5.494300     68.217600      6.080000      5.610000
 1555.0      5.726325     68.154858      6.087766      5.597717
 1560.0      5.955613     68.086378      6.095209      5.585283
 1565.0      6.182049     68.012384      6.102331      5.572712
 1570.0      6.405520     67.933101      6.109135      5.560019
 1575.0      6.625911     67.848752      6.115624      5.547218
 1580.0      6.843109     67.759561      6.121800      5.534325
 1585.0      7.057000     67.665753      6.127666      5.521354
 1590.0      7.267471     67.567552      6.133225      5.508319
 1595.0      7.474408     67.465182      6.138479      5.495235
 1600.0      7.677696     67.358867      6.143431      5.482118
 1605.0      7.877223     67.248831      6.148083      5.468982
 1610.0      8.072874     67.135298      6.152438      5.455841
 1615.0      8.264536     67.018492      6.156499      5.442711
 1620.0      8.452095     66.898637      6.160269      5.429605
 1625.0      8.635437     66.775958      6.163749      5.416539
 1630.0      8.814448     66.650679      6.166943      5.403528
 1635.0      8.989015     66.523024      6.169853      5.390586
 1640.0      9.159024     66.393216      6.172482      5.377728
 1645.0      9.324361     66.261480      6.174832      5.364968
 1650.0      9.484913     66.128040      6.176907      5.352322
 1655.0      9.640565     65.993120      6.178708      5.339803
 1660.0      9.791204     65.856944      6.180239      5.327427
 1665.0      9.936716     65.719737      6.181502      5.315209
 1670.0     10.076988     65.581722      6.182500      5.303163
 1675.0     10.211905     65.443124      6.183235      5.291304
 1680.0     10.341354     65.304166      6.183709      5.279646
 1685.0     10.465221     65.165073      6.183926      5.268205
 1690.0     10.583392     65.026069      6.183889      5.256994
 1695.0     10.695754     64.887378      6.183599      5.246029
 1700.0     10.802193     64.749224      6.183060      5.235324
 1705.0     10.902595     64.611831      6.182274      5.224894
 1710.0     10.996846     64.475424      6.181243      5.214755
 1715.0     11.084833     64.340226      6.179970      5.204920
 1720.0     11.166441     64.206461      6.178459      5.195405
 1725.0     11.241557     64.074354      6.176711      5.186223
 1730.0     11.310068     63.944129      6.174730      5.177390
 1735.0     11.371860     63.816010      6.172517      5.168920
 1740.0     11.426818     63.690220      6.170076      5.160829
 1745.0     11.474829     63.566984      6.167409      5.153131
 1750.0     11.515779     63.446527      6.164518      5.145840
 1755.0     11.549553     63.329073      6.161407      5.138971
 1760.0     11.576043     63.214842      6.158078      5.132539
 1765.0     11.595134     63.104058      6.154534      5.126558
 1770.0     11.606698     62.996960      6.150777      5.121045
 1775.0     11.610664     62.893731      6.146810      5.116011
 1780.0     11.607219     62.794314      6.142639      5.111445
 1785.0     11.596621     62.698584      6.138273      5.107332
 1790.0     11.579154     62.606395      6.133718      5.103655
 1795.0     11.555104     62.517598      6.128981      5.100395
 1800.0     11.524752     62.432046      6.124071      5.097536
 1805.0     11.488377     62.349596      6.118995      5.095060
 1810.0     11.446259     62.270103      6.113761      5.092949
 1815.0     11.398681     62.193421      6.108375      5.091186
 1820.0     11.345924     62.119406      6.102845      5.089754
 1825.0     11.288268     62.047912      6.097179      5.088635
 1830.0     11.225995     61.978795      6.091384      5.087811
 1835.0     11.159385     61.911908      6.085468      5.087266
 1840.0     11.088720     61.847108      6.079438      5.086982
 1845.0     11.014280     61.784249      6.073302      5.086941
 1850.0     10.936346     61.723185      6.067067      5.087125
 1855.0     10.855200     61.663772      6.060741      5.087518
 1860.0     10.771123     61.605864      6.054331      5.088103
 1865.0     10.684395     61.549317      6.047845      5.088861
 1870.0     10.595297     61.493985      6.041289      5.089775
 1875.0     10.504110     61.439723      6.034672      5.090828
 1880.0     10.411116     61.386386      6.028001      5.092002
 1885.0     10.316596     61.333829      6.021284      5.093280
 1890.0     10.220829     61.281907      6.014528      5.094644
 1895.0     10.124095     61.230477      6.007740      5.096077
 1900.0     10.026684     61.179386      6.000929      5.097561
 1905.0      9.928881     61.128489      5.994102      5.099079
 1910.0      9.830924     61.077665      5.987265      5.100615
 1915.0      9.732994     61.026826      5.980423      5.102159
 1920.0      9.635070     60.975997      5.973576      5.103713
 1925.0      9.537091     60.925226      5.966725      5.105282
 1930.0      9.439017     60.874549      5.959870      5.106868
 1935.0      9.340816     60.824000      5.953009      5.108475
 1940.0      9.242446     60.773617      5.946144      5.110107
 1945.0      9.143866     60.723436      5.939274      5.111766
 1950.0      9.045035     60.673494      5.932399      5.113456
 1955.0      8.945915     60.623827      5.925519      5.115181
 1960.0      8.846464     60.574473      5.918634      5.116943
 1965.0      8.746643     60.525468      5.911744      5.118746
 1970.0      8.646411     60.476849      5.904849      5.120594
 1975.0      8.545728     60.428652      5.897949      5.122490
 1980.0      8.444554     60.380914      5.891043      5.124437
 1985.0      8.342850     60.333673      5.884132      5.126439
 1990.0      8.240574     60.286964      5.877216      5.128499
 1995.0      8.137687     60.240825      5.870295      5.130620
 2000.0      8.034148     60.195291      5.863368      5.132805
 2005.0      7.929918     60.150400      5.856436      5.135059
 2010.0      7.824956     60.106189      5.849498      5.137384
 2015.0      7.719222     60.062694      5.842555      5.139784
 2020.0      7.612676     60.019952      5.835606      5.142262
 2025.0      7.505278     59.977999      5.828651      5.144822
 2030.0      7.396988     59.936873      5.821690      5.147466
 2035.0      7.287765     59.896610      5.814724      5.150199
 2040.0      7.177570     59.857247      5.807752      5.153023
 2045.0      7.066362     59.818821      5.800774      5.155942
 2050.0      6.954102     59.781367      5.793790      5.158959
 2055.0      6.840750     59.744922      5.786801      5.162078
 2060.0      6.726262     59.709527      5.779805      5.165303
 2065.0      6.610597     59.675218      5.772803      5.168636
 2070.0      6.493730     59.642018      5.765794      5.172080
 2075.0      6.375647     59.609937      5.758780      5.175636
 2080.0      6.256369     59.578950      5.751759      5.179302
 2085.0      6.135927     59.549022      5.744731      5.183076
 2090.0      6.014343     59.520126      5.737696      5.186955
 2095.0      5.891641     59.492234      5.730654      5.190937
 2100.0      5.767846     59.465319      5.723604      5.195020
 2105.0      5.642982     59.439351      5.716547      5.199202
 2110.0      5.517073     59.414301      5.709481      5.203481
 2115.0      5.390143     59.390142      5.702407      5.207855
 2120.0      5.262217     59.366845      5.695325      5.212321
 2125.0      5.133319     59.344382      5.688234      5.216877
 2130.0      5.003474     59.322725      5.681134      5.221522
 2135.0      4.872705     59.301845      5.674025      5.226253
 2140.0      4.741037     59.281713      5.666906      5.231067
 2145.0      4.608494     59.262301      5.659778      5.235963
 2150.0      4.475101     59.243581      5.652639      5.240939
 2155.0      4.340881     59.225525      5.645490      5.245992
 2160.0      4.205860     59.208104      5.638331      5.251120
 2165.0      4.070061     59.191289      5.631161      5.256322
 2170.0      3.933509     59.175053      5.623981      5.261595
 2175.0      3.796228     59.159367      5.616789      5.266936
 2180.0      3.658242     59.144202      5.609586      5.272344
 2185.0      3.519575     59.129530      5.602371      5.277816
 2190.0      3.380252     59.115323      5.595144      5.283351
 2195.0      3.240298     59.101552      5.587905      5.288946
 2200.0      3.099736     59.088189      5.580653      5.294600
 2205.0      2.958591     59.075206      5.573389      5.300309
 2210.0      2.816886     59.062574      5.566112      5.306072
 2215.0      2.674647     59.050264      5.558822      5.311886
 2220.0      2.531897     59.038249      5.551519      5.317750
 2225.0      2.388661     59.026500      5.544202      5.323661
 2230.0      2.244964     59.014988      5.536871      5.329617
 2235.0      2.100830     59.003685      5.529526      5.335616
 2240.0      1.956281     58.992564      5.522167      5.341656
 2245.0      1.811341     58.981598      5.514793      5.347735
 2250.0      1.666042     58.970750      5.507404      5.353850
 2255.0      1.520408     58.959992      5.500000      5.359999
 2260.0      1.374427     58.949332      5.492581      5.366183
 2265.0      1.228072     58.938794      5.485148      5.372404
 2270.0      1.081277     58.928438      5.477702      5.378667
 2275.0      0.933972     58.918330      5.470245      5.384978
 2280.0      0.786093     58.908530      5.462777      5.391343
 2285.0      0.637578     58.899096      5.455300      5.397766
 2290.0      0.488364     58.890089      5.447816      5.404253
 2295.0      0.338385     58.881568      5.440325      5.410809
 2300.0      0.187578     58.873592      5.432829      5.417439
 2305.0      0.035878     58.866222      5.425328      5.424149
 2310.0     -0.116779     58.859518      5.417825      5.430944
 2315.0     -0.270456     58.853540      5.410321      5.437829
 2320.0     -0.425218     58.848347      5.402816      5.444809
 2325.0     -0.581129     58.843999      5.395312      5.451890
 2330.0     -0.738252     58.840556      5.387810      5.459076
 2335.0     -0.896652     58.838079      5.380312      5.466374
 2340.0     -1.056393     58.836626      5.372818      5.473788
 2345.0     -1.217539     58.836258      5.365330      5.481324
 2350.0     -1.380155     58.837034      5.357850      5.488986
 2355.0     -1.544303     58.839014      5.350378      5.496781
 2360.0     -1.710048     58.842259      5.342916      5.504713
 2365.0     -1.877454     58.846828      5.335464      5.512788
 2370.0     -2.046586     58.852781      5.328025      5.521011
 2375.0     -2.217507     58.860177      5.320600      5.529387
 2380.0     -2.390282     58.869077      5.313189      5.537922
 2385.0     -2.564973     58.879540      5.305794      5.546620
 2390.0     -2.741646     58.891627      5.298417      5.555488
 2395.0     -2.920365     58.905397      5.291058      5.564530
 2400.0     -3.101193     58.920910      5.283719      5.573751
 2405.0     -3.284194     58.938226      5.276401      5.583157
 2410.0     -3.469433     58.957404      5.269105      5.592753
 2415.0     -3.656974     58.978505      5.261833      5.602545
 2420.0     -3.846881     59.001589      5.254585      5.612537
 2425.0     -4.039217     59.026715      5.247363      5.622734
 2430.0     -4.234047     59.053942      5.240169      5.633143
 2435.0     -4.431435     59.083332      5.233003      5.643769
 2440.0     -4.631445     59.114943      5.225867      5.654616
 2445.0     -4.834141     59.148836      5.218762      5.665690
 2450.0     -5.039587     59.185070      5.211689      5.676995
 2455.0     -5.247847     59.223706      5.204650      5.688538
 2460.0     -5.458985     59.264803      5.197645      5.700324
 2465.0     -5.673065     59.308421      5.190676      5.712358
 2470.0     -5.890152     59.354620      5.183745      5.724645
 2475.0     -6.110309     59.403460      5.176853      5.737191
 2480.0     -6.333600     59.455000      5.170000      5.750000
 2485.0     -6.560046     59.509268      5.163188      5.763075
 2490.0     -6.789494     59.566162      5.156417      5.776404
 2495.0     -7.021747     59.625545      5.149688      5.789972
 2500.0     -7.256610     59.687283      5.143000      5.803765
 2505.0     -7.493885     59.751241      5.136354      5.817768
 2510.0     -7.733376     59.817283      5.129750      5.831966
 2515.0     -7.974887     59.885274      5.123188      5.846344
 2520.0     -8.218220     59.955080      5.116668      5.860888
 2525.0     -8.463180     60.026565      5.110190      5.875583
 2530.0     -8.709570     60.099593      5.103755      5.890414
 2535.0     -8.957194     60.174029      5.097363      5.905366
 2540.0     -9.205855     60.249739      5.091013      5.920424
 2545.0     -9.455356     60.326587      5.084706      5.935574
 2550.0     -9.705502     60.404437      5.078443      5.950800
 2555.0     -9.956095     60.483155      5.072223      5.966089
 2560.0    -10.206940     60.562606      5.066047      5.981425
 2565.0    -10.457840     60.642654      5.059914      5.996794
 2570.0    -10.708598     60.723163      5.053825      6.012180
 2575.0    -10.959017     60.804000      5.047780      6.027569
 2580.0    -11.208902     60.885028      5.041779      6.042947
 2585.0    -11.458056     60.966113      5.035823      6.058298
 2590.0    -11.706283     61.047119      5.029911      6.073608
 2595.0    -11.953385     61.127911      5.024044      6.088862
 2600.0    -12.199166     61.208354      5.018221      6.104045
 2605.0    -12.443431     61.288312      5.012443      6.119142
 2610.0    -12.685982     61.367651      5.006711      6.134139
 2615.0    -12.926623     61.446236      5.001024      6.149020
 2620.0    -13.165158     61.523930      4.995383      6.163772
 2625.0    -13.401390     61.600599      4.989787      6.178379
 2630.0    -13.635122     61.676107      4.984237      6.192826
 2635.0    -13.866158     61.750320      4.978733      6.207099
 2640.0    -14.094302     61.823103      4.973276      6.221182
 2645.0    -14.319357     61.894319      4.967864      6.235062
 2650.0    -14.541127     61.963834      4.962499      6.248723
 2655.0    -14.759415     62.031513      4.957180      6.262151
 2660.0    -14.974025     62.097220      4.951909      6.275331
 2665.0    -15.184760     62.160821      4.946685      6.288247
 2670.0    -15.391424     62.222179      4.941508      6.300886
 2675.0    -15.593820     62.281160      4.936378      6.313233
 2680.0    -15.791752     62.337629      4.931295      6.325272
 2685.0    -15.985024     62.391451      4.926260      6.336989
 2690.0    -16.173438     62.442490      4.921273      6.348369
 2695.0    -16.356799     62.490611      4.916333      6.359398
 2700.0    -16.534909     62.535678      4.911442      6.370060
 2705.0    -16.707573     62.577557      4.906599      6.380341
 2710.0    -16.874594     62.616113      4.901805      6.390225
 2715.0    -17.035775     62.651209      4.897060      6.399699
 2720.0    -17.190921     62.682712      4.892363      6.408748
 2725.0    -17.339835     62.710486      4.887715      6.417357
 2730.0    -17.482318     62.734395      4.883116      6.425510
 2735.0    -17.618174     62.754303      4.878566      6.433193
 2740.0    -17.747214     62.770080      4.874066      6.440392
 2745.0    -17.869243     62.781592      4.869616      6.447092
 2750.0    -17.984036     62.788685      4.865215      6.453277
 2755.0    -18.091393     62.791221      4.860864      6.458931
 2760.0    -18.191250     62.789154      4.856563      6.464049
 2765.0    -18.283630     62.782496      4.852312      6.468632
 2770.0    -18.368766     62.771403      4.848111      6.472698
 2775.0    -18.446935     62.756058      4.843959      6.476265
 2780.0    -18.518372     62.736616      4.839855      6.479352
 2785.0    -18.583308     62.713229      4.835799      6.481974
 2790.0    -18.641981     62.686057      4.831791      6.484149
 2795.0    -18.694634     62.655259      4.827831      6.485894
 2800.0    -18.741505     62.620995      4.823918      6.487226
 2805.0    -18.782833     62.583421      4.820051      6.488162
 2810.0    -18.818858     62.542696      4.816230      6.488720
 2815.0    -18.849818     62.498978      4.812455      6.488916
 2820.0    -18.875953     62.452425      4.808726      6.488767
 2825.0    -18.897501     62.403197      4.805042      6.488291
 2830.0    -18.914701     62.351451      4.801402      6.487506
 2835.0    -18.927793     62.297346      4.797807      6.486427
 2840.0    -18.937017     62.241039      4.794255      6.485073
 2845.0    -18.942611     62.182690      4.790747      6.483460
 2850.0    -18.944813     62.122457      4.787282      6.481606
 2855.0    -18.943863     62.060497      4.783859      6.479528
 2860.0    -18.940001     61.996970      4.780478      6.477242
 2865.0    -18.933466     61.932034      4.777140      6.474766
 2870.0    -18.924496     61.865846      4.773843      6.472117
 2875.0    -18.913331     61.798565      4.770587      6.469313
 2880.0    -18.900210     61.730350      4.767371      6.466370
 2885.0    -18.885372     61.661359      4.764196      6.463306
 2890.0    -18.869055     61.591750      4.761060      6.460137
 2895.0    -18.851500     61.521682      4.757964      6.456881
 2900.0    -18.832945     61.451312      4.754906      6.453556
 2905.0    -18.813630     61.380800      4.751887      6.450177
 2910.0    -18.793793     61.310303      4.748907      6.446763
 2915.0    -18.773674     61.239980      4.745965      6.443330
 2920.0    -18.753511     61.169990      4.743060      6.439896
 2925.0    -18.733544     61.100490      4.740192      6.436477
 2930.0    -18.714012     61.031638      4.737360      6.433092
 2935.0    -18.695154     60.963594      4.734565      6.429757
 2940.0    -18.677210     60.896516      4.731805      6.426489
 2945.0    -18.660418     60.830561      4.729081      6.423305
 2950.0    -18.645017     60.765888      4.726391      6.420222
 2955.0    -18.631247     60.702656      4.723736      6.417259
 2960.0    -18.619346     60.641022      4.721116      6.414431
 2965.0    -18.609554     60.581146      4.718529      6.411756
 2970.0    -18.602110     60.523185      4.715976      6.409251
 2975.0    -18.597253     60.467298      4.713456      6.406933
 2980.0    -18.595222     60.413643      4.710968      6.404820
 2985.0    -18.596256     60.362378      4.708513      6.402928
 2990.0    -18.600594     60.313662      4.706089      6.401275
 2995.0    -18.608476     60.267653      4.703697      6.399878
 3000.0    -18.620141     60.224510      4.701336      6.398754
 3050.0    -18.997453     59.985523      4.679340      6.406300
 3100.0    -20.016000     60.207200      4.660000      6.460000
 3150.0    -21.851985     61.004101      4.642916      6.572411
 3200.0    -24.430419     62.316069      4.627678      6.737743
 3250.0    -27.613234     64.039050      4.613873      6.945600
 3300.0    -31.261245     66.068110      4.601083      7.185501
 3350.0    -35.236028     68.298912      4.588895      7.447023
 3400.0    -39.403314     70.630392      4.576912      7.720062
 3450.0    -43.625996     72.959252      4.564724      7.994297
 3500.0    -47.751462     75.169981      4.551863      8.258214
 3550.0    -51.643007     77.159599      4.537922      8.501523
 3600.0    -55.243067     78.887459      4.522796      8.720009
 3650.0    -58.528451     80.339992      4.506509      8.912097
 3700.0    -61.534332     81.549607      4.489309      9.080691
 3750.0    -64.307163     82.557593      4.471488      9.229564
 3800.0    -66.880155     83.394789      4.453284      9.361468
 3850.0    -69.284143     84.090176      4.434929      9.478976
 3900.0    -71.553698     84.675757      4.416670      9.584951
 3950.0    -73.723900     85.183881      4.398755      9.682291
 4000.0    -75.828122     85.645259      4.381419      9.773750
 4050.0    -77.900084     86.091074      4.364901      9.862119
 4100.0    -79.976590     86.556046      4.349480      9.950476
 4150.0    -82.090976     87.070792      4.335388     10.041570
 4200.0    -84.259627     87.645987      4.322647     10.136536
 4250.0    -86.492732     88.285012      4.311200     10.235917
 4300.0    -88.792643     88.982010      4.300892     10.339510
 4350.0    -91.160228     89.729377      4.291552     10.446972
 4400.0    -93.598253     90.521744      4.283029     10.558139
 4450.0    -96.109830     91.354151      4.275179     10.672880
 4500.0    -98.697563     92.221038      4.267851     10.791017
 4550.0   -101.363963     93.116737      4.260892     10.912362
 4600.0   -104.111678     94.035739      4.254152     11.036740
 4650.0   -106.943380     94.972566      4.247479     11.163979
 4700.0   -109.861704     95.921697      4.240723     11.293904
 4750.0   -112.869280     96.877601      4.233734     11.426338
 4800.0   -115.968746     97.834761      4.226360     11.561105
 4850.0   -119.162743     98.787660      4.218450     11.698031
 4900.0   -122.453909     99.730779      4.209854     11.836939
 4950.0   -125.844882    100.658599      4.200421     11.977654
 5000.0   -129.338300    101.565600      4.190000     12.120000
 5050.0   -132.935024    102.447528      4.178485     12.263799
 5100.0   -136.628805    103.305179      4.165949     12.408862
 5150.0   -140.411619    104.140614      4.152509     12.554995
 5200.0   -144.275439    104.955894      4.138283     12.702007
 5250.0   -148.212240    105.753079      4.123390     12.849704
 5300.0   -152.213997    106.534231      4.107946     12.997894
 5350.0   -156.272684    107.301409      4.092069     13.146384
 5400.0   -160.380276    108.056674      4.075877     13.294982
 5450.0   -164.528748    108.802086      4.059488     13.443494
 5500.0   -168.710073    109.539707      4.043019     13.591729
 5550.0   -172.916226    110.271597      4.026589     13.739494
 5600.0   -177.139182    110.999816      4.010314     13.886596
 5650.0   -181.370915    111.726425      3.994313     14.032842
 5700.0   -185.603401    112.453485      3.978702     14.178040
 5750.0   -189.828613    113.183056      3.963600     14.321998
 5800.0   -194.038526    113.917199      3.949125     14.464522
 5850.0   -198.225114    114.657975      3.935394     14.605420
 5900.0   -202.380352    115.407443      3.922525     14.744500
 5950.0   -206.496214    116.167665      3.910635     14.881568
 6000.0   -210.564675    116.940701      3.899843     15.016432
 6050.0   -214.577710    117.728612      3.890266     15.148900
 6100.0   -218.527293    118.533459      3.882021     15.278780
 6150.0   -222.405398    119.357301      3.875226     15.405877
 6200.0   -226.204000    120.202200      3.870000     15.530000
 6250.0   -229.918634    121.069958      3.866425     15.651048
 6300.0   -233.559080    121.961347      3.864445     15.769288
 6350.0   -237.138677    122.876878      3.863971     15.885078
 6400.0   -240.670765    123.817066      3.864912     15.998778
 6450.0   -244.168683    124.782424      3.867179     16.110745
 6500.0   -247.645771    125.773464      3.870682     16.221339
 6550.0   -251.115370    126.790700      3.875330     16.330918
 6600.0   -254.590818    127.834645      3.881034     16.439840
 6650.0   -258.085455    128.905811      3.887703     16.548465
 6700.0   -261.612622    130.004712      3.895248     16.657152
 6750.0   -265.185658    131.131861      3.903578     16.766259
 6800.0   -268.817903    132.287772      3.912604     16.876144
 6850.0   -272.522697    133.472957      3.922235     16.987167
 6900.0   -276.313377    134.687929      3.932382     17.099685
 6950.0   -280.203281    135.933201      3.942954     17.214058
 7000.0   -284.205763    137.209287      3.953862     17.330645
 7050.0   -288.334165    138.516699      3.965015     17.449804
 7100.0   -292.601779    139.855951      3.976323     17.571892
 7150.0   -297.021932    141.227555      3.987697     17.697269
 7200.0   -301.608143    142.632025      3.999046     17.826298
 7250.0   -306.373799    144.069876      4.010279     17.959339
 7300.0   -311.331567    145.541615      4.021310     18.096730
 7350.0   -316.490556    147.047727      4.032079     18.238706
 7400.0   -321.846376    148.588604      4.042617     18.385097
 7450.0   -327.391406    150.164615      4.052977     18.535640
 7500.0   -333.118615    151.776133      4.063209     18.690089
 7550.0   -339.021081    153.423534      4.073362     18.848201
 7600.0   -345.091725    155.107191      4.083485     19.009728
 7650.0   -351.323437    156.827477      4.093628     19.174421
 7700.0   -357.709150    158.584766      4.103841     19.342032
 7750.0   -364.241806    160.379430      4.114173     19.512316
 7800.0   -370.914332    162.211844      4.124675     19.685024
 7850.0   -377.719657    164.082382      4.135396     19.859908
 7900.0   -384.650714    165.991415      4.146385     20.036722
 7950.0   -391.700436    167.939316      4.157692     20.215218
 8000.0   -398.861737    169.926465      4.169368     20.395147
 8050.0   -406.127543    171.953238      4.181461     20.576262
 8100.0   -413.490845    174.019982      4.194021     20.758319
 8150.0   -420.944589    176.127064      4.207097     20.941071
 8200.0   -428.481479    178.274955      4.220742     21.124258
 8250.0   -436.094410    180.464045      4.235007     21.307632
 8300.0   -443.777275    182.694286      4.249925     21.490995
 8350.0   -451.524756    184.965287      4.265515     21.674191
 8400.0   -459.333684    187.275717      4.281757     21.857173
 8450.0   -467.201339    189.624048      4.298624     22.039920
 8500.0   -475.124638    192.008912      4.316097     22.222392
 8550.0   -483.100434    194.428968      4.334156     22.404545
 8600.0   -491.125677    196.882834      4.352780     22.586339
 8650.0   -499.197333    199.369120      4.371948     22.767737
 8700.0   -507.312342    201.886446      4.391638     22.948698
 8750.0   -515.467642    204.433435      4.411830     23.129183
 8800.0   -523.660174    207.008708      4.432503     23.309153
 8850.0   -531.886884    209.610884      4.453636     23.488568
 8900.0   -540.144713    212.238584      4.475208     23.667390
 8950.0   -548.430605    214.890428      4.497199     23.845578
 9000.0   -556.741501    217.565036      4.519587     24.023094
 9050.0   -565.074345    220.261029      4.542352     24.199897
 9100.0   -573.426078    222.977026      4.565472     24.375949
 9150.0   -581.793643    225.711649      4.588927     24.551210
 9200.0   -590.173984    228.463517      4.612695     24.725641
 9250.0   -598.564042    231.231251      4.636757     24.899202
 9300.0   -606.960761    234.013470      4.661090     25.071854
 9350.0   -615.361082    236.808796      4.685674     25.243558
 9400.0   -623.761949    239.615848      4.710489     25.414274
 9450.0   -632.160304    242.433247      4.735513     25.583963
 9500.0   -640.553089    245.259613      4.760726     25.752585
 9550.0   -648.937248    248.093567      4.786106     25.920101
 9600.0   -657.309722    250.933728      4.811632     26.086472
 9650.0   -665.667455    253.778717      4.837284     26.251658
 9700.0   -674.007388    256.627155      4.863040     26.415620
 9750.0   -682.326464    259.477661      4.888880     26.578318
 9800.0   -690.621627    262.328855      4.914784     26.739714
 9850.0   -698.889819    265.179359      4.940729     26.899767
 9900.0   -707.127982    268.027792      4.966696     27.058439
 9950.0   -715.333058    270.872775      4.992663     27.215690
10000.0   -723.501991    273.712927      5.018609     27.371480
10050.0   -731.631723    276.546869      5.044514     27.525771
10100.0   -739.719197    279.373222      5.070356     27.678522
10150.0   -747.761355    282.190606      5.096115     27.829694
10200.0   -755.755140    284.997641      5.121769     27.979249
10250.0   -763.697495    287.792947      5.147298     28.127146
10300.0   -771.585361    290.575145      5.172681     28.273347
10350.0   -779.415681    293.342855      5.197897     28.417811
10400.0   -787.185399    296.094697      5.222925     28.560500
10450.0   -794.891457    298.829292      5.247744     28.701374
10500.0   -802.530797    301.545259      5.272334     28.840394
10550.0   -810.100362    304.241219      5.296673     28.977520
10600.0   -817.597094    306.915792      5.320741     29.112713
10650.0   -825.017936    309.567599      5.344516     29.245934
10700.0   -832.359831    312.195260      5.367978     29.377143
10750.0   -839.619721    314.797395      5.391106     29.506300
10800.0   -846.794550    317.372625      5.413878     29.633367
10850.0   -853.881259    319.919569      5.436275     29.758304
10900.0   -860.876791    322.436848      5.458274     29.881072
10950.0   -867.778088    324.923082      5.479855     30.001631
11000.0   -874.582094    327.376892      5.500998     30.119942
11050.0   -881.285750    329.796898      5.521681     30.235966
11100.0   -887.886000    332.181720      5.541884     30.349662
11150.0   -894.379786    334.529979      5.561585     30.460992
11200.0   -900.764050    336.840294      5.580764     30.569916
11250.0   -907.035736    339.111286      5.599400     30.676396
11300.0   -913.191785    341.341575      5.617471     30.780391
11350.0   -919.229140    343.529782      5.634957     30.881862
11400.0   -925.144745    345.674527      5.651838     30.980770
11450.0   -930.935541    347.774430      5.668091     31.077075
11500.0   -936.598472    349.828111      5.683697     31.170738
11550.0   -942.130479    351.834190      5.698634     31.261720
11600.0   -947.528505    353.791289      5.712881     31.349981
11650.0   -952.789493    355.698027      5.726418     31.435482
11700.0   -957.910385    357.553025      5.739224     31.518184
11750.0   -962.888125    359.354903      5.751277     31.598047
11800.0   -967.719654    361.102280      5.762557     31.675031
11850.0   -972.401916    362.793778      5.773043     31.749097
11900.0   -976.931852    364.428016      5.782714     31.820207
11950.0   -981.306406    366.003616      5.791549     31.888320
12000.0   -985.522520    367.519197      5.799528     31.953398
12050.0   -989.577136    368.973379      5.806628     32.015400
12100.0   -993.467197    370.364783      5.812830     32.074287
12150.0   -997.189646    371.692029      5.818112     32.130021
12200.0  -1000.741426    372.953737      5.822454     32.182561
12250.0  -1004.119479    374.148528      5.825835     32.231869
12300.0  -1007.320747    375.275022      5.828233     32.277904
12350.0  -1010.342173    376.331839      5.829628     32.320628
12400.0  -1013.180700    377.317600      5.830000     32.360000
