#Lambda        Dielectric Constant          Refractive Index
# [nm]        [Real]        [Imag]        [Real]        [Imag]
   10.0      0.927837      0.098827      0.964617      0.051233
   15.0      0.918580      0.148747      0.960529      0.079146
   20.0      0.919776      0.206510      0.965000      0.107000
   25.0      0.907235      0.260849      0.962959      0.134151
   30.0      0.856770      0.300500      0.939338      0.159953
   35.0      0.764208      0.329918      0.892305      0.187961
   40.0      0.705445      0.416440      0.872988      0.238530
   45.0      0.739124      0.600890      0.919325      0.321994
   50.0      0.774809      0.755149      0.963551      0.391818
   55.0      0.718788      0.766953      0.939215      0.409381
   60.0      0.613321      0.756406      0.890830      0.424605
   65.0      0.523123      0.858233      0.876108      0.489696
   70.0      0.466740      1.033287      0.894595      0.577458
   75.0      0.450666      1.210325      0.932519      0.648620
   80.0      0.479336      1.363590      0.981000      0.695000
   85.0      0.548029      1.479878      1.031170      0.717857
   90.0      0.617448      1.550700      1.069328      0.725115
   95.0      0.650549      1.575363      1.085198      0.725786
  100.0      0.653868      1.579656      1.087032      0.726559
  105.0      0.640661      1.589713      1.084972      0.732565
  110.0      0.607488      1.606581      1.078206      0.745032
  115.0      0.549805      1.627598      1.064811      0.764306
  120.0      0.475362      1.660346      1.049386      0.791107
  125.0      0.394616      1.712123      1.037288      0.825330
  130.0      0.316558      1.778858      1.030386      0.863207
  135.0      0.247246      1.853827      1.028923      0.900822
  140.0      0.182482      1.931069      1.030121      0.937338
  145.0      0.117526      2.004792      1.031010      0.972276
  150.0      0.055727      2.069103      1.030881      1.003514
  155.0     -0.001575      2.120090      1.029112      1.029985
  160.0     -0.069161      2.161860      1.023155      1.056470
  165.0     -0.162428      2.200934      1.011043      1.088447
  170.0     -0.283100      2.245479      0.995038      1.128318
  175.0     -0.428305      2.303054      0.978409      1.177057
  180.0     -0.590445      2.377149      0.964209      1.232989
  185.0     -0.761299      2.472529      0.955659      1.294187
  190.0     -0.934882      2.603120      0.956870      1.360357
  195.0     -1.105440      2.779773      0.970859      1.430847
  200.0     -1.265902      2.991871      0.995379      1.501925
  205.0     -1.407969      3.225700      1.027464      1.569372
  210.0     -1.519728      3.476622      1.066525      1.630083
  215.0     -1.589909      3.742193      1.112546      1.681746
  220.0     -1.613411      4.019660      1.165424      1.724097
  225.0     -1.588830      4.303552      1.224225      1.757348
  230.0     -1.523374      4.577825      1.284785      1.781573
  235.0     -1.424289      4.824489      1.342788      1.796452
  240.0     -1.290375      5.028355      1.396540      1.800228
  245.0     -1.120080      5.175458      1.444843      1.791054
  250.0     -0.918896      5.253933      1.485858      1.768151
  255.0     -0.705412      5.259250      1.516917      1.733726
  260.0     -0.543559      5.214105      1.532671      1.700851
  265.0     -0.483827      5.145347      1.530191      1.681043
  270.0     -0.477601      5.069205      1.518911      1.668723
  275.0     -0.468002      4.995281      1.508336      1.656109
  280.0     -0.464200      4.917303      1.495891      1.643698
  285.0     -0.489308      4.828914      1.477057      1.634343
  290.0     -0.556158      4.739306      1.451612      1.632046
  295.0     -0.671146      4.661373      1.420959      1.640303
  300.0     -0.825208      4.607266      1.388718      1.659448
  305.0     -1.001273      4.587961      1.359508      1.688032
  310.0     -1.165711      4.610483      1.339742      1.720644
  315.0     -1.290081      4.674940      1.333783      1.751824
  320.0     -1.383252      4.757723      1.336004      1.779867
  325.0     -1.462019      4.832040      1.338996      1.804130
  330.0     -1.537577      4.882087      1.338205      1.824450
  335.0     -1.617809      4.900263      1.331073      1.841195
  340.0     -1.702937      4.900779      1.320178      1.856372
  345.0     -1.791709      4.900583      1.308828      1.872100
  350.0     -1.884632      4.905746      1.298108      1.889309
  355.0     -1.982708      4.918389      1.288326      1.908470
  360.0     -2.087167      4.935721      1.278900      1.929418
  365.0     -2.199034      4.954320      1.269152      1.951863
  370.0     -2.318304      4.973155      1.258920      1.975638
  375.0     -2.444493      4.992015      1.248227      2.000597
  380.0     -2.576239      5.011591      1.237334      2.026543
  385.0     -2.712006      5.032757      1.226549      2.053271
  390.0     -2.850439      5.056219      1.216137      2.080587
  395.0     -2.990228      5.082634      1.206348      2.108300
  400.0     -3.130059      5.112642      1.197427      2.136219
  405.0     -3.268576      5.146938      1.189636      2.164149
  410.0     -3.404254      5.186465      1.183299      2.191886
  415.0     -3.535796      5.231844      1.178658      2.219240
  420.0     -3.662990      5.282149      1.175558      2.246090
  425.0     -3.786016      5.335910      1.173705      2.272340
  430.0     -3.905535      5.391027      1.172638      2.297929
  435.0     -4.022318      5.445208      1.171852      2.322801
  440.0     -4.137104      5.496034      1.170822      2.346881
  445.0     -4.250484      5.541538      1.169119      2.370107
  450.0     -4.362499      5.581693      1.166713      2.392490
  455.0     -4.472996      5.617124      1.163708      2.414062
  460.0     -4.581592      5.649108      1.160349      2.434872
  465.0     -4.687867      5.679108      1.156915      2.454978
  470.0     -4.791498      5.708656      1.153689      2.474457
  475.0     -4.892139      5.739057      1.150913      2.493366
  480.0     -4.989274      5.770622      1.148681      2.511664
  485.0     -5.082244      5.802817      1.146954      2.529230
  490.0     -5.169994      5.832732      1.145326      2.545713
  495.0     -5.251412      5.856965      1.143314      2.560716
  500.0     -5.325550      5.872538      1.140492      2.573900
  505.0     -5.391398      5.876523      1.136446      2.584919
  510.0     -5.447545      5.865769      1.130762      2.593349
  515.0     -5.492881      5.837201      1.123011      2.598816
  520.0     -5.527908      5.788256      1.112710      2.601238
  525.0     -5.554335      5.716758      1.099335      2.600740
  530.0     -5.577074      5.621554      1.082246      2.597998
  535.0     -5.601754      5.501684      1.060777      2.593823
  540.0     -5.633664      5.355930      1.034266      2.589009
  545.0     -5.678382      5.183151      1.002101      2.584522
  550.0     -5.742990      4.982768      0.963857      2.582024
  555.0     -5.835137      4.753987      0.919071      2.583386
  560.0     -5.963231      4.494584      0.866923      2.590608
  565.0     -6.134571      4.203998      0.807007      2.605458
  570.0     -6.351248      3.889763      0.740921      2.628649
  575.0     -6.613370      3.562439      0.671012      2.660492
  580.0     -6.918320      3.236604      0.600626      2.700734
  585.0     -7.262982      2.927694      0.533320      2.749025
  590.0     -7.644974      2.650560      0.472495      2.805175
  595.0     -8.061339      2.416626      0.420781      2.868774
  600.0     -8.506095      2.224179      0.377874      2.938355
  605.0     -8.972490      2.068090      0.342703      3.012182
  610.0     -9.453707      1.942692      0.314078      3.088491
  615.0     -9.942929      1.842225      0.290785      3.165513
  620.0    -10.433393      1.761091      0.271650      3.241498
  625.0    -10.919208      1.694649      0.255673      3.314993
  630.0    -11.397930      1.641918      0.242530      3.385717
  635.0    -11.868007      1.602796      0.232058      3.453685
  640.0    -12.328018      1.577044      0.224078      3.518916
  645.0    -12.776429      1.564500      0.218422      3.581419
  650.0    -13.211133      1.565452      0.214971      3.641149
  655.0    -13.630923      1.579499      0.213530      3.698147
  660.0    -14.038768      1.603037      0.213532      3.752863
  665.0    -14.439021      1.631391      0.214289      3.805883
  670.0    -14.837393      1.658807      0.214985      3.857928
  675.0    -15.238704      1.680681      0.214971      3.909604
  680.0    -15.642859      1.698090      0.214389      3.960926
  685.0    -16.048546      1.713503      0.213577      4.011763
  690.0    -16.454513      1.729266      0.212856      4.061991
  695.0    -16.859532      1.747430      0.212499      4.111494
  700.0    -17.262421      1.768997      0.212610      4.160187
  705.0    -17.662106      1.794673      0.213247      4.208000
  710.0    -18.057917      1.825027      0.214459      4.254898
  715.0    -18.449924      1.860237      0.216248      4.300908
  720.0    -18.840765      1.899064      0.218452      4.346284
  725.0    -19.233617      1.939964      0.220874      4.391328
  730.0    -19.631242      1.981599      0.223341      4.436303
  735.0    -20.035676      2.022910      0.225719      4.481410
  740.0    -20.446479      2.063748      0.227992      4.526628
  745.0    -20.862616      2.104183      0.230172      4.571883
  750.0    -21.283162      2.144247      0.232269      4.617113
  755.0    -21.707214      2.183966      0.234289      4.662255
  760.0    -22.133837      2.223375      0.236242      4.707245
  765.0    -22.562092      2.262512      0.238136      4.752018
  770.0    -22.991049      2.301411      0.239980      4.796511
  775.0    -23.419777      2.340108      0.241783      4.840659
  780.0    -23.847344      2.378636      0.243553      4.884398
  785.0    -24.272817      2.417031      0.245299      4.927663
  790.0    -24.695267      2.455328      0.247029      4.970391
  795.0    -25.113761      2.493562      0.248752      5.012518
  800.0    -25.527364      2.531767      0.250477      5.053979
  805.0    -25.935141      2.569979      0.252212      5.094710
  810.0    -26.336180      2.608232      0.253967      5.134647
  815.0    -26.729553      2.646561      0.255749      5.173727
  820.0    -27.114260      2.685003      0.257568      5.211881
  825.0    -27.489358      2.723593      0.259432      5.249044
  830.0    -27.854219      2.762357      0.261347      5.285175
  835.0    -28.208445      2.801313      0.263319      5.320247
  840.0    -28.552252      2.840460      0.265345      5.354281
  845.0    -28.885983      2.879795      0.267423      5.387305
  850.0    -29.209875      2.919317      0.269553      5.419342
  855.0    -29.524143      2.959025      0.271733      5.450411
  860.0    -29.829032      2.998917      0.273961      5.480533
  865.0    -30.124792      3.038992      0.276236      5.509731
  870.0    -30.411666      3.079249      0.278558      5.538027
  875.0    -30.689895      3.119686      0.280925      5.565443
  880.0    -30.959721      3.160303      0.283335      5.592000
  885.0    -31.221389      3.201098      0.285788      5.617720
  890.0    -31.475141      3.242070      0.288281      5.642624
  895.0    -31.721221      3.283217      0.290814      5.666735
  900.0    -31.959871      3.324539      0.293385      5.690075
  905.0    -32.191334      3.366034      0.295993      5.712665
  910.0    -32.415854      3.407700      0.298637      5.734526
  915.0    -32.633673      3.449537      0.301315      5.755681
  920.0    -32.845034      3.491543      0.304026      5.776151
  925.0    -33.050181      3.533717      0.306768      5.795959
  930.0    -33.249356      3.576057      0.309541      5.815126
  935.0    -33.442802      3.618562      0.312344      5.833674
  940.0    -33.630763      3.661232      0.315174      5.851624
  945.0    -33.813481      3.704065      0.318031      5.868999
  950.0    -33.991200      3.747059      0.320912      5.885819
  955.0    -34.164161      3.790213      0.323817      5.902107
  960.0    -34.332609      3.833527      0.326745      5.917885
  965.0    -34.496787      3.876998      0.329694      5.933174
  970.0    -34.656937      3.920626      0.332664      5.947997
  975.0    -34.813302      3.964409      0.335652      5.962375
  980.0    -34.966125      4.008345      0.338657      5.976329
  985.0    -35.115650      4.052434      0.341678      5.989882
  990.0    -35.262119      4.096675      0.344713      6.003056
  995.0    -35.405775      4.141066      0.347762      6.015871
 1000.0    -35.546862      4.185605      0.350824      6.028350
 1005.0    -35.685622      4.230292      0.353896      6.040515
 1010.0    -35.822299      4.275125      0.356977      6.052387
 1015.0    -35.957135      4.320103      0.360067      6.063989
 1020.0    -36.090373      4.365225      0.363163      6.075341
 1025.0    -36.222256      4.410489      0.366265      6.086466
 1030.0    -36.353028      4.455895      0.369371      6.097385
 1035.0    -36.482931      4.501441      0.372480      6.108121
 1040.0    -36.612209      4.547125      0.375591      6.118695
 1045.0    -36.741104      4.592947      0.378702      6.129129
 1050.0    -36.869859      4.638904      0.381812      6.139444
 1055.0    -36.998717      4.684996      0.384920      6.149663
 1060.0    -37.127922      4.731222      0.388024      6.159807
 1065.0    -37.257716      4.777581      0.391123      6.169898
 1070.0    -37.388343      4.824070      0.394216      6.179957
 1075.0    -37.520045      4.870689      0.397301      6.190007
 1080.0    -37.653065      4.917436      0.400377      6.200070
 1085.0    -37.787646      4.964311      0.403443      6.210166
 1090.0    -37.924032      5.011311      0.406498      6.220318
 1095.0    -38.062465      5.058436      0.409540      6.230548
 1100.0    -38.203189      5.105684      0.412568      6.240877
 1105.0    -38.346446      5.153055      0.415580      6.251327
 1110.0    -38.492479      5.200546      0.418576      6.261920
 1115.0    -38.641532      5.248157      0.421554      6.272678
 1120.0    -38.793847      5.295886      0.424512      6.283622
 1125.0    -38.949667      5.343732      0.427449      6.294774
 1130.0    -39.109235      5.391694      0.430365      6.306157
 1135.0    -39.272795      5.439770      0.433257      6.317792
 1140.0    -39.440590      5.487960      0.436125      6.329700
 1145.0    -39.612861      5.536261      0.438967      6.341903
 1150.0    -39.789853      5.584673      0.441781      6.354423
 1155.0    -39.971808      5.633194      0.444567      6.367282
 1160.0    -40.158970      5.681824      0.447324      6.380502
 1165.0    -40.351581      5.730560      0.450049      6.394104
 1170.0    -40.549885      5.779402      0.452742      6.408111
 1175.0    -40.754124      5.828349      0.455401      6.422544
 1180.0    -40.964541      5.877398      0.458025      6.437424
 1185.0    -41.181379      5.926549      0.460612      6.452774
 1190.0    -41.404882      5.975800      0.463162      6.468615
 1195.0    -41.635292      6.025151      0.465673      6.484970
 1200.0    -41.872852      6.074599      0.468144      6.501859
 1205.0    -42.117806      6.124144      0.470573      6.519305
 1210.0    -42.370396      6.173784      0.472959      6.537329
 1215.0    -42.630865      6.223519      0.475301      6.555953
 1220.0    -42.899457      6.273346      0.477597      6.575200
 1225.0    -43.176417      6.323265      0.479847      6.595090
 1230.0    -43.461980      6.373274      0.482048      6.615646
 1235.0    -43.756388      6.423373      0.484200      6.636888
 1240.0    -44.059908      6.473559      0.486301      6.658841
 1245.0    -44.372790      6.523832      0.488350      6.681527
 1250.0    -44.695185      6.574189      0.490346      6.704960
 1255.0    -45.027311      6.624629      0.492288      6.729159
 1260.0    -45.369756      6.675154      0.494172      6.754176
 1265.0    -45.722766      6.725764      0.495998      6.780032
 1270.0    -46.084851      6.776439      0.497772      6.806605
 1275.0    -46.453681      6.827154      0.499506      6.833704
 1280.0    -46.825301      6.877866      0.501217      6.861002
 1285.0    -47.195360      6.928530      0.502925      6.888140
 1290.0    -47.559536      6.979100      0.504651      6.914762
 1295.0    -47.914727      7.029546      0.506409      6.940609
 1300.0    -48.262675      7.079912      0.508195      6.965804
 1305.0    -48.606484      7.130264      0.509996      6.990574
 1310.0    -48.949871      7.180676      0.511798      7.015197
 1315.0    -49.296565      7.231222      0.513587      7.039950
 1320.0    -49.649741      7.281969      0.515350      7.065069
 1325.0    -50.011397      7.332968      0.517082      7.090707
 1330.0    -50.379370      7.384216      0.518792      7.116712
 1335.0    -50.750469      7.435694      0.520496      7.142860
 1340.0    -51.121540      7.487383      0.522209      7.168929
 1345.0    -51.489658      7.539269      0.523945      7.194713
 1350.0    -51.852765      7.591354      0.525713      7.220065
 1355.0    -52.210040      7.643659      0.527520      7.244925
 1360.0    -52.564729      7.696276      0.529355      7.269513
 1365.0    -52.921040      7.749313      0.531205      7.294116
 1370.0    -53.282964      7.802881      0.533058      7.319004
 1375.0    -53.654200      7.857081      0.534902      7.344428
 1380.0    -54.037501      7.911975      0.536727      7.370575
 1385.0    -54.434193      7.967567      0.538527      7.397537
 1390.0    -54.840825      8.023675      0.540306      7.425080
 1395.0    -55.252873      8.080076      0.542072      7.452900
 1400.0    -55.666277      8.136560      0.543832      7.480724
 1405.0    -56.077162      8.192927      0.545590      7.508291
 1410.0    -56.481909      8.248998      0.547353      7.535357
 1415.0    -56.878085      8.304676      0.549126      7.561757
 1420.0    -57.267737      8.360164      0.550912      7.587627
 1425.0    -57.653928      8.415734      0.552714      7.613171
 1430.0    -58.039308      8.471626      0.554535      7.638565
 1435.0    -58.426539      8.528081      0.556377      7.663985
 1440.0    -58.818742      8.585393      0.558245      7.689639
 1445.0    -59.218365      8.643774      0.560140      7.715690
 1450.0    -59.624713      8.703078      0.562057      7.742094
 1455.0    -60.036150      8.763050      0.563986      7.768746
 1460.0    -60.450434      8.823372      0.565919      7.795502
 1465.0    -60.865136      8.883702      0.567844      7.822204
 1470.0    -61.277704      8.943651      0.569750      7.848687
 1475.0    -61.685869      9.002891      0.571626      7.874805
 1480.0    -62.088630      9.061369      0.573473      7.900492
 1485.0    -62.485821      9.119215      0.575300      7.925739
 1490.0    -62.879344      9.177010      0.577133      7.950668
 1495.0    -63.271512      9.235420      0.579004      7.975429
 1500.0    -63.664197      9.295007      0.580938      8.000142
 1505.0    -64.059237      9.356332      0.582961      8.024927
 1510.0    -64.458757      9.420052      0.585104      8.049920
 1515.0    -64.864560      9.486693      0.587391      8.075238
 1520.0    -65.276866      9.556155      0.589814      8.100893
 1525.0    -65.695414      9.628151      0.592356      8.126866
 1530.0    -66.119602      9.702255      0.594992      8.153114
 1535.0    -66.548765      9.778018      0.597698      8.179592
 1540.0    -66.982324      9.855024      0.600451      8.206259
 1545.0    -67.419719      9.932864      0.603226      8.233075
 1550.0    -67.860364     10.011120      0.606000      8.260000
 1555.0    -68.303680     10.089440      0.608754      8.286994
 1560.0    -68.749128     10.167749      0.611485      8.314026
 1565.0    -69.196182     10.246041      0.614197      8.341064
 1570.0    -69.644319     10.324309      0.616890      8.368080
 1575.0    -70.093011     10.402545      0.619567      8.395043
 1580.0    -70.541716     10.480743      0.622231      8.421923
 1585.0    -70.989902     10.558895      0.624884      8.448688
 1590.0    -71.437100     10.636996      0.627528      8.475312
 1595.0    -71.883014     10.715052      0.630165      8.501778
 1600.0    -72.327996     10.793101      0.632796      8.528107
 1605.0    -72.772546     10.871191      0.635421      8.554329
 1610.0    -73.217123     10.949366      0.638040      8.580471
 1615.0    -73.662178     11.027669      0.640655      8.606560
 1620.0    -74.108161     11.106145      0.643266      8.632622
 1625.0    -74.555533     11.184838      0.645874      8.658684
 1630.0    -75.004787     11.263794      0.648479      8.684776
 1635.0    -75.456292     11.343052      0.651082      8.710919
 1640.0    -75.909888     11.422624      0.653685      8.737106
 1645.0    -76.365266     11.502512      0.656288      8.763318
 1650.0    -76.822065     11.582716      0.658893      8.789536
 1655.0    -77.279916     11.663236      0.661502      8.815738
 1660.0    -77.738476     11.744072      0.664115      8.841906
 1665.0    -78.197398     11.825224      0.666735      8.868020
 1670.0    -78.656280     11.906694      0.669363      8.894057
 1675.0    -79.114767     11.988483      0.672001      8.919997
 1680.0    -79.572729     12.070579      0.674648      8.945834
 1685.0    -80.030151     12.152967      0.677304      8.971566
 1690.0    -80.487246     12.235619      0.679966      8.997206
 1695.0    -80.944270     12.318508      0.682632      9.022770
 1700.0    -81.401430     12.401605      0.685300      9.048269
 1705.0    -81.858926     12.484884      0.687967      9.073714
 1710.0    -82.316970     12.568321      0.690632      9.099119
 1715.0    -82.775777     12.651888      0.693291      9.124496
 1720.0    -83.235559     12.735551      0.695942      9.149857
 1725.0    -83.696525     12.819291      0.698583      9.175215
 1730.0    -84.158866     12.903160      0.701217      9.200579
 1735.0    -84.622769     12.987234      0.703846      9.225960
 1740.0    -85.088414     13.071603      0.706475      9.251366
 1745.0    -85.555981     13.156362      0.709107      9.276806
 1750.0    -86.025655     13.241600      0.711746      9.302290
 1755.0    -86.497617     13.327407      0.714396      9.327826
 1760.0    -86.972044     13.413872      0.717062      9.353424
 1765.0    -87.449114     13.501084      0.719747      9.379092
 1770.0    -87.929033     13.589141      0.722455      9.404840
 1775.0    -88.411923     13.678111      0.725190      9.430675
 1780.0    -88.897557     13.767926      0.727948      9.456586
 1785.0    -89.385614     13.858483      0.730726      9.482556
 1790.0    -89.875740     13.949666      0.733520      9.508567
 1795.0    -90.367575     14.041354      0.736324      9.534602
 1800.0    -90.860759     14.133430      0.739133      9.560642
 1805.0    -91.354939     14.225779      0.741944      9.586670
 1810.0    -91.849793     14.318290      0.744751      9.612669
 1815.0    -92.344977     14.410849      0.747550      9.638623
 1820.0    -92.840018     14.503318      0.750336      9.664507
 1825.0    -93.334614     14.595589      0.753105      9.690307
 1830.0    -93.829287     14.687710      0.755856      9.716046
 1835.0    -94.324843     14.779780      0.758592      9.741764
 1840.0    -94.822417     14.871959      0.761316      9.767515
 1845.0    -95.323205     14.964421      0.764031      9.793356
 1850.0    -95.828335     15.057324      0.766742      9.819341
 1855.0    -96.338911     15.150823      0.769452      9.845522
 1860.0    -96.856022     15.245074      0.772164      9.871952
 1865.0    -97.380788     15.340234      0.774882      9.898684
 1870.0    -97.914456     15.436476      0.777609      9.925777
 1875.0    -98.458177     15.533963      0.780349      9.953287
 1880.0    -99.012577     15.632795      0.783104      9.981244
 1885.0    -99.577563     15.732993      0.785877     10.009643
 1890.0   -100.150694     15.834311      0.788664     10.038368
 1895.0   -100.729016     15.936442      0.791462     10.067278
 1900.0   -101.309861     16.039114      0.794268     10.096247
 1905.0   -101.890607     16.142059      0.797079     10.125149
 1910.0   -102.468528     16.244997      0.799893     10.153855
 1915.0   -103.040906     16.347650      0.802706     10.182234
 1920.0   -103.605142     16.449752      0.805515     10.210163
 1925.0   -104.158574     16.551030      0.808318     10.237515
 1930.0   -104.698152     16.651172      0.811111     10.264146
 1935.0   -105.221116     16.749895      0.813891     10.289923
 1940.0   -105.726259     16.847076      0.816657     10.314788
 1945.0   -106.213727     16.942729      0.819409     10.338747
 1950.0   -106.687538     17.037267      0.822151     10.361988
 1955.0   -107.152526     17.131185      0.824887     10.384738
 1960.0   -107.612914     17.224915      0.827623     10.407193
 1965.0   -108.072811     17.318879      0.830362     10.429547
 1970.0   -108.536492     17.413516      0.833109     10.451999
 1975.0   -109.008261     17.509266      0.835868     10.474752
 1980.0   -109.492379     17.606567      0.838644     10.498005
 1985.0   -109.993097     17.705854      0.841441     10.521956
 1990.0   -110.514680     17.807563      0.844263     10.546806
 1995.0   -111.061393     17.912133      0.847115     10.572754
 2000.0   -111.637500     18.020000      0.850000     10.600000
 2005.0   -112.245605     18.131436      0.852922     10.628667
 2010.0   -112.881682     18.246051      0.855879     10.658571
 2015.0   -113.540047     18.363290      0.858865     10.689453
 2020.0   -114.215011     18.482597      0.861877     10.721054
 2025.0   -114.900889     18.603417      0.864909     10.753113
 2030.0   -115.592011     18.725195      0.867958     10.785372
 2035.0   -116.282697     18.847377      0.871019     10.817571
 2040.0   -116.967204     18.969403      0.874088     10.849448
 2045.0   -117.639832     19.090715      0.877160     10.880742
 2050.0   -118.295111     19.210778      0.880231     10.911203
 2055.0   -118.927415     19.329043      0.883297     10.940574
 2060.0   -119.530257     19.444879      0.886352     10.968560
 2065.0   -120.097863     19.557722      0.889393     10.994897
 2070.0   -120.628181     19.667360      0.892417     11.019489
 2075.0   -121.121532     19.773807      0.895423     11.042347
 2080.0   -121.584001     19.877624      0.898415     11.063743
 2085.0   -122.022847     19.979482      0.901395     11.084000
 2090.0   -122.444245     20.079949      0.904367     11.103395
 2095.0   -122.854170     20.179575      0.907333     11.122193
 2100.0   -123.258880     20.278937      0.910295     11.140675
 2105.0   -123.664690     20.378616      0.913257     11.159121
 2110.0   -124.077869     20.479190      0.916221     11.177812
 2115.0   -124.504651     20.581233      0.919191     11.197024
 2120.0   -124.951179     20.685310      0.922169     11.217033
 2125.0   -125.423676     20.791995      0.925158     11.238116
 2130.0   -125.928773     20.901899      0.928160     11.260568
 2135.0   -126.472803     21.015605      0.931179     11.284672
 2140.0   -127.060494     21.133547      0.934218     11.310640
 2145.0   -127.694382     21.255954      0.937276     11.338586
 2150.0   -128.369846     21.382387      0.940352     11.368307
 2155.0   -129.080690     21.512259      0.943442     11.399532
 2160.0   -129.821573     21.645063      0.946543     11.432027
 2165.0   -130.587307     21.780308      0.949653     11.465565
 2170.0   -131.372472     21.917480      0.952768     11.499907
 2175.0   -132.171610     22.056061      0.955887     11.534815
 2180.0   -132.979338     22.195540      0.959006     11.570052
 2185.0   -133.790275     22.335408      0.962122     11.605383
 2190.0   -134.598965     22.475147      0.965233     11.640570
 2195.0   -135.399991     22.614243      0.968335     11.675374
 2200.0   -136.188149     22.752204      0.971427     11.709567
 2205.0   -136.958093     22.888524      0.974505     11.742915
 2210.0   -137.703685     23.022615      0.977565     11.775148
 2215.0   -138.419639     23.153976      0.980606     11.806036
 2220.0   -139.104868     23.282538      0.983627     11.835529
 2225.0   -139.760011     23.408411      0.986631     11.863654
 2230.0   -140.388415     23.531980      0.989623     11.890556
 2235.0   -140.993947     23.653685      0.992607     11.916401
 2240.0   -141.579847     23.773902      0.995587     11.941328
 2245.0   -142.149242     23.892994      0.998568     11.965473
 2250.0   -142.705427     24.011344      1.001553     11.988977
 2255.0   -143.251728     24.129335      1.004548     12.011983
 2260.0   -143.791418     24.247346      1.007556     12.034633
 2265.0   -144.327767     24.365756      1.010581     12.057068
 2270.0   -144.864082     24.484947      1.013629     12.079430
 2275.0   -145.403655     24.605301      1.016703     12.101861
 2280.0   -145.949682     24.727185      1.019808     12.124499
 2285.0   -146.505422     24.850978      1.022948     12.147484
 2290.0   -147.074480     24.977101      1.026127     12.170972
 2295.0   -147.660174     25.105940      1.029351     12.195105
 2300.0   -148.264333     25.237679      1.032620     12.219962
 2305.0   -148.887835     25.372378      1.035934     12.245582
 2310.0   -149.529250     25.509786      1.039287     12.271904
 2315.0   -150.186679     25.649591      1.042674     12.298845
 2320.0   -150.858659     25.791538      1.046090     12.326344
 2325.0   -151.543804     25.935383      1.049529     12.354341
 2330.0   -152.240614     26.080866      1.052985     12.382771
 2335.0   -152.947565     26.227725      1.056454     12.411569
 2340.0   -153.663166     26.375702      1.059930     12.440672
 2345.0   -154.385931     26.524539      1.063408     12.470016
 2350.0   -155.114369     26.673978      1.066882     12.499538
 2355.0   -155.846984     26.823761      1.070348     12.529172
 2360.0   -156.582274     26.973626      1.073799     12.558855
 2365.0   -157.318744     27.123315      1.077231     12.588523
 2370.0   -158.054935     27.272577      1.080638     12.618113
 2375.0   -158.789361     27.421156      1.084015     12.647562
 2380.0   -159.520403     27.568763      1.087356     12.676800
 2385.0   -160.246586     27.715144      1.090656     12.705764
 2390.0   -160.967162     27.860223      1.093914     12.734423
 2395.0   -161.681678     28.004000      1.097131     12.762762
 2400.0   -162.390150     28.146588      1.100313     12.790785
 2405.0   -163.092682     28.288125      1.103464     12.818500
 2410.0   -163.789270     28.428720      1.106588     12.845912
 2415.0   -164.479893     28.568478      1.109690     12.873023
 2420.0   -165.164555     28.707510      1.112774     12.899837
 2425.0   -165.843268     28.845930      1.115845     12.926359
 2430.0   -166.516035     28.983849      1.118907     12.952594
 2435.0   -167.182859     29.121379      1.121964     12.978544
 2440.0   -167.843744     29.258630      1.125021     13.004215
 2445.0   -168.498694     29.395715      1.128082     13.029610
 2450.0   -169.147713     29.532744      1.131152     13.054733
 2455.0   -169.790805     29.669829      1.134235     13.079589
 2460.0   -170.427974     29.807082      1.137336     13.104181
 2465.0   -171.059224     29.944614      1.140458     13.128514
 2470.0   -171.684559     30.082537      1.143606     13.152592
 2475.0   -172.303983     30.220962      1.146785     13.176419
 2480.0   -172.917500     30.360000      1.150000     13.200000
 2485.0   -173.525337     30.499750      1.153252     13.223345
 2490.0   -174.128616     30.640254      1.156541     13.246494
 2495.0   -174.728681     30.781541      1.159862     13.269494
 2500.0   -175.326877     30.923642      1.163213     13.292391
 2505.0   -175.924548     31.066586      1.166589     13.315234
 2510.0   -176.523038     31.210402      1.169987     13.338068
 2515.0   -177.123693     31.355120      1.173405     13.360940
 2520.0   -177.727856     31.500769      1.176838     13.383898
 2525.0   -178.336873     31.647379      1.180283     13.406988
 2530.0   -178.952088     31.794978      1.183737     13.430256
 2535.0   -179.574845     31.943597      1.187196     13.453750
 2540.0   -180.206490     32.093264      1.190657     13.477517
 2545.0   -180.848368     32.244010      1.194116     13.501603
 2550.0   -181.501818     32.395864      1.197571     13.526056
 2555.0   -182.168184     32.548855      1.201017     13.550922
 2560.0   -182.848829     32.703013      1.204452     13.576248
 2565.0   -183.545102     32.858368      1.207871     13.602082
 2570.0   -184.258279     33.014946      1.211271     13.628468
 2575.0   -184.989687     33.172777      1.214649     13.655452
 2580.0   -185.740925     33.331900      1.218002     13.683089
 2585.0   -186.513228     33.492340      1.221326     13.711424
 2590.0   -187.306098     33.654045      1.224620     13.740438
 2595.0   -188.118430     33.816933      1.227885     13.770092
 2600.0   -188.948423     33.980894      1.231124     13.800321
 2605.0   -189.794148     34.145809      1.234338     13.831058
 2610.0   -190.653846     34.311568      1.237529     13.862241
 2615.0   -191.525789     34.478064      1.240698     13.893809
 2620.0   -192.408204     34.645185      1.243848     13.925698
 2625.0   -193.299307     34.812821      1.246981     13.957846
 2630.0   -194.197330     34.980862      1.250098     13.990190
 2635.0   -195.100505     35.149197      1.253201     14.022667
 2640.0   -196.007062     35.317716      1.256291     14.055215
 2645.0   -196.915229     35.486308      1.259371     14.087771
 2650.0   -197.823233     35.654864      1.262443     14.120273
 2655.0   -198.729305     35.823273      1.265508     14.152658
 2660.0   -199.631678     35.991424      1.268568     14.184863
 2665.0   -200.528583     36.159208      1.271625     14.216826
 2670.0   -201.418234     36.326512      1.274680     14.248483
 2675.0   -202.298855     36.493226      1.277736     14.279771
 2680.0   -203.168736     36.659245      1.280794     14.310631
 2685.0   -204.026123     36.824460      1.283856     14.341000
 2690.0   -204.869018     36.988742      1.286924     14.370808
 2695.0   -205.695650     37.151980      1.290000     14.399991
 2700.0   -206.505392     37.314156      1.293085     14.428528
 2705.0   -207.298191     37.475295      1.296180     14.456417
 2710.0   -208.075137     37.635515      1.299286     14.483696
 2715.0   -208.837548     37.794950      1.302403     14.510412
 2720.0   -209.586496     37.953717      1.305531     14.536604
 2725.0   -210.323011     38.111928      1.308672     14.562308
 2730.0   -211.048188     38.269700      1.311825     14.587563
 2735.0   -211.763132     38.427151      1.314992     14.612408
 2740.0   -212.468933     38.584399      1.318172     14.636881
 2745.0   -213.166677     38.741560      1.321367     14.661022
 2750.0   -213.857453     38.898751      1.324577     14.684869
 2755.0   -214.542353     39.056089      1.327802     14.708461
 2760.0   -215.222466     39.213692      1.331044     14.731837
 2765.0   -215.898883     39.371677      1.334302     14.755035
 2770.0   -216.572694     39.530160      1.337578     14.778094
 2775.0   -217.244988     39.689259      1.340871     14.801052
 2780.0   -217.916855     39.849090      1.344182     14.823949
 2785.0   -218.589385     40.009771      1.347512     14.846823
 2790.0   -219.263671     40.171420      1.350861     14.869713
 2795.0   -219.940804     40.334153      1.354230     14.892657
 2800.0   -220.621861     40.498086      1.357620     14.915694
 2805.0   -221.307929     40.663336      1.361031     14.938863
 2810.0   -222.000145     40.830024      1.364463     14.962204
 2815.0   -222.699609     40.998270      1.367917     14.985756
 2820.0   -223.407228     41.168169      1.371393     15.009551
 2825.0   -224.123647     41.339790      1.374893     15.033612
 2830.0   -224.848650     41.513104      1.378415     15.057931
 2835.0   -225.581829     41.688061      1.381958     15.082494
 2840.0   -226.322881     41.864624      1.385523     15.107289
 2845.0   -227.071521     42.042756      1.389109     15.132306
 2850.0   -227.827437     42.222418      1.392715     15.157535
 2855.0   -228.590312     42.403570      1.396342     15.182963
 2860.0   -229.359835     42.586174      1.399988     15.208580
 2865.0   -230.135698     42.770191      1.403653     15.234374
 2870.0   -230.917590     42.955582      1.407336     15.260334
 2875.0   -231.705201     43.142308      1.411038     15.286450
 2880.0   -232.498219     43.330330      1.414757     15.312709
 2885.0   -233.296335     43.519610      1.418494     15.339100
 2890.0   -234.099238     43.710108      1.422247     15.365613
 2895.0   -234.906617     43.901786      1.426017     15.392236
 2900.0   -235.718162     44.094604      1.429803     15.418959
 2905.0   -236.533562     44.288524      1.433604     15.445769
 2910.0   -237.352507     44.483506      1.437420     15.472656
 2915.0   -238.174686     44.679513      1.441250     15.499608
 2920.0   -238.999790     44.876505      1.445094     15.526615
 2925.0   -239.827507     45.074443      1.448952     15.553665
 2930.0   -240.657526     45.273288      1.452823     15.580746
 2935.0   -241.489536     45.473001      1.456707     15.607848
 2940.0   -242.323232     45.673545      1.460603     15.634960
 2945.0   -243.158306     45.874880      1.464510     15.662070
 2950.0   -243.994422     46.076964      1.468429     15.689167
 2955.0   -244.831295     46.279762      1.472359     15.716240
 2960.0   -245.668881     46.483262      1.476299     15.743288
 2965.0   -246.507210     46.687460      1.480250     15.770311
 2970.0   -247.346365     46.892358      1.484210     15.797311
 2975.0   -248.186440     47.097959      1.488180     15.824292
 2980.0   -249.027513     47.304263      1.492160     15.851256
 2985.0   -249.869662     47.511272      1.496149     15.878206
 2990.0   -250.712972     47.718986      1.500148     15.905145
 2995.0   -251.557527     47.927407      1.504156     15.932075
 3000.0   -252.403385     48.136538      1.508172     15.958997
 3050.0   -260.951109     50.267169      1.548773     16.228391
 3100.0   -269.721900     52.470000      1.590000     16.500000
 3150.0   -278.767966     54.747241      1.631739     16.775525
 3200.0   -288.001225     57.105949      1.674387     17.052568
 3250.0   -297.317254     59.553510      1.718392     17.328206
 3300.0   -306.686552     62.093768      1.763900     17.601506
 3350.0   -316.146777     64.728265      1.810803     17.873303
 3400.0   -325.929284     67.452867      1.858296     18.149521
 3450.0   -336.253873     70.261746      1.905561     18.435814
 3500.0   -347.100412     73.147969      1.952438     18.731673
 3550.0   -358.336387     76.103266      1.999053     19.033707
 3600.0   -369.619678     79.115127      2.046014     19.333166
 3650.0   -380.619538     82.172432      2.093937     19.621594
 3700.0   -391.260316     85.273861      2.142985     19.897065
 3750.0   -401.578343     88.422664      2.193128     20.160516
 3800.0   -411.802789     91.630578      2.244025     20.417812
 3850.0   -422.185861     94.910344      2.295299     20.675414
 3900.0   -432.879070     98.270220      2.346730     20.937242
 3950.0   -443.964933    101.715364      2.398206     21.205483
 4000.0   -455.350698    105.243006      2.449888     21.477939
 4050.0   -466.902559    108.848571      2.502001     21.751387
 4100.0   -478.497780    112.528204      2.554757     22.022885
 4150.0   -490.034598    116.278720      2.608330     22.290010
 4200.0   -501.484070    120.098895      2.662754     22.552124
 4250.0   -512.845085    123.988294      2.718008     22.809272
 4300.0   -524.155030    127.947672      2.774000     23.062439
 4350.0   -535.458701    131.977959      2.830623     23.312795
 4400.0   -546.792036    136.079601      2.887784     23.561319
 4450.0   -558.188442    140.253286      2.945399     23.808892
 4500.0   -569.680047    144.501155      3.003416     24.056203
 4550.0   -581.297930    148.825831      3.061797     24.303864
 4600.0   -593.070234    153.230397      3.120519     24.552363
 4650.0   -605.025262    157.718038      3.179560     24.802176
 4700.0   -617.194886    162.291869      3.238888     25.053863
 4750.0   -629.608724    166.954946      3.298478     25.307946
 4800.0   -642.283816    171.710149      3.358327     25.564711
 4850.0   -655.226983    176.560205      3.418456     25.824258
 4900.0   -668.416761    181.507392      3.478939     26.086169
 4950.0   -681.825912    186.553884      3.539864     26.349921
 5000.0   -695.432379    191.701872      3.601307     26.615086
 5050.0   -709.214571    196.953602      3.663342     26.881244
 5100.0   -723.147575    202.311510      3.726056     27.147914
 5150.0   -737.207891    207.777863      3.789531     27.414643
 5200.0   -751.381004    213.354049      3.853807     27.681137
 5250.0   -765.659022    219.040785      3.918898     27.947222
 5300.0   -780.051581    224.836965      3.984741     28.213040
 5350.0   -794.572008    230.741116      4.051256     28.478798
 5400.0   -809.230883    236.752105      4.118378     28.744654
 5450.0   -824.038068    242.868834      4.186042     29.010752
 5500.0   -839.003305    249.090003      4.254181     29.277238
 5550.0   -854.137112    255.414380      4.322728     29.544271
 5600.0   -869.453241    261.841194      4.391613     29.812054
 5650.0   -884.961309    268.369156      4.460769     30.080732
 5700.0   -900.651171    274.994429      4.530155     30.350159
 5750.0   -916.505202    281.712214      4.599737     30.620083
 5800.0   -932.495614    288.516414      4.669494     30.890102
 5850.0   -948.592684    295.400683      4.739409     31.159786
 5900.0   -964.769116    302.358987      4.809459     31.428741
 5950.0   -980.998063    309.385348      4.879623     31.696578
 6000.0   -997.252045    316.473710      4.949879     31.962901
 6050.0  -1013.503449    323.617999      5.020207     32.227311
 6100.0  -1029.724773    330.812143      5.090585     32.489410
 6150.0  -1045.888592    338.050086      5.160992     32.748802
 6200.0  -1061.967670    345.325846      5.231408     33.005093
 6250.0  -1077.942055    352.635848      5.301827     33.258004
 6300.0  -1093.820738    359.986077      5.372305     33.507705
 6350.0  -1109.619891    367.384888      5.442914     33.754481
 6400.0  -1125.355456    374.840560      5.513724     33.998611
 6450.0  -1141.043329    382.361360      5.584806     34.240375
 6500.0  -1156.699461    389.955568      5.656231     34.480052
 6550.0  -1172.339821    397.631474      5.728071     34.717923
 6600.0  -1187.980392    405.397376      5.800396     34.954268
 6650.0  -1203.637132    413.261562      5.873277     35.189367
 6700.0  -1219.325886    421.232255      5.946784     35.423499
 6750.0  -1235.062580    429.317725      6.020988     35.656942
 6800.0  -1250.863581    437.526481      6.095963     35.889984
 6850.0  -1266.744946    445.866865      6.171779     36.122907
 6900.0  -1282.721064    454.346299      6.248500     36.355964
 6950.0  -1298.802362    462.970024      6.326167     36.589345
 7000.0  -1314.985094    471.735481      6.404747     36.823005
 7050.0  -1331.262256    480.638316      6.484188     37.056845
 7100.0  -1347.627974    489.674799      6.564446     37.290786
 7150.0  -1364.076582    498.841312      6.645478     37.524750
 7200.0  -1380.602110    508.134071      6.727238     37.758656
 7250.0  -1397.198533    517.549262      6.809681     37.992422
 7300.0  -1413.859903    527.083113      6.892761     38.225968
 7350.0  -1430.580290    536.731862      6.976434     38.459211
 7400.0  -1447.353756    546.491744      7.060655     38.692072
 7450.0  -1464.174348    556.358986      7.145378     38.924469
 7500.0  -1481.036073    566.329781      7.230558     39.156319
 7550.0  -1497.932969    576.400348      7.316150     39.387542
 7600.0  -1514.859257    586.567040      7.402110     39.618059
 7650.0  -1531.809031    596.826119      7.488392     39.847790
 7700.0  -1548.775711    607.173340      7.574948     40.076643
 7750.0  -1565.753351    617.604932      7.661732     40.304537
 7800.0  -1582.739227    628.119538      7.748725     40.531443
 7850.0  -1599.732181    638.716974      7.835920     40.757355
 7900.0  -1616.734110    649.399347      7.923335     40.982316
 7950.0  -1633.747532    660.169225      8.010995     41.206378
 8000.0  -1650.774391    671.028741      8.098917     41.429585
 8050.0  -1667.816450    681.979898      8.187118     41.651977
 8100.0  -1684.875331    693.024620      8.275615     41.873595
 8150.0  -1701.952907    704.165001      8.364427     42.094480
 8200.0  -1719.052195    715.403884      8.453577     42.314689
 8250.0  -1736.175255    726.743481      8.543084     42.534267
 8300.0  -1753.319178    738.182728      8.632945     42.753200
 8350.0  -1770.477380    749.718136      8.723140     42.971431
 8400.0  -1787.633545    761.339800      8.813608     43.188789
 8450.0  -1804.769344    773.036487      8.904277     43.405080
 8500.0  -1821.868145    784.798081      8.995084     43.620128
 8550.0  -1838.913623    796.614670      9.085965     43.833763
 8600.0  -1855.889000    808.476044      9.176857     44.045808
 8650.0  -1872.777415    820.371937      9.267696     44.256086
 8700.0  -1889.562128    832.292163      9.358416     44.464420
 8750.0  -1906.226423    844.226552      9.448954     44.670634
 8800.0  -1922.753551    856.164912      9.539245     44.874553
 8850.0  -1939.126755    868.097047      9.629226     45.076000
 8900.0  -1955.329289    880.012766      9.718832     45.274800
 8950.0  -1971.344406    891.901880      9.807999     45.470776
 9000.0  -1987.155360    903.754198      9.896663     45.663751
 9050.0  -2002.745403    915.559529      9.984760     45.853550
 9100.0  -2018.097787    927.307682     10.072225     46.039996
 9150.0  -2033.195765    938.988467     10.158994     46.222914
 9200.0  -2048.022588    950.591694     10.245003     46.402127
 9250.0  -2062.561510    962.107170     10.330188     46.577459
 9300.0  -2076.795783    973.524706     10.414484     46.748733
 9350.0  -2090.708660    984.834110     10.497827     46.915775
 9400.0  -2104.283393    996.025193     10.580154     47.078407
 9450.0  -2117.503235   1007.087763     10.661400     47.236453
 9500.0  -2130.351438   1018.011629     10.741501     47.389738
 9550.0  -2142.811255   1028.786600     10.820392     47.538085
 9600.0  -2154.865938   1039.402487     10.898009     47.681318
 9650.0  -2166.498740   1049.849099     10.974288     47.819261
 9700.0  -2177.692913   1060.116244     11.049166     47.951737
 9750.0  -2188.431710   1070.193732     11.122577     48.078571
 9800.0  -2198.698383   1080.071371     11.194458     48.199586
 9850.0  -2208.476184   1089.738972     11.264744     48.314606
 9900.0  -2217.748367   1099.186344     11.333371     48.423456
 9950.0  -2226.498184   1108.403296     11.400275     48.525959
10000.0  -2234.708887   1117.379636     11.465392     48.621938
10050.0  -2242.363729   1126.105175     11.528657     48.711218
10100.0  -2249.445963   1134.569721     11.590007     48.793622
10150.0  -2255.938840   1142.763085     11.649377     48.868974
10200.0  -2261.825613   1150.675075     11.706703     48.937098
10250.0  -2267.089535   1158.295500     11.761920     48.997818
10300.0  -2271.713859   1165.614170     11.814965     49.050959
10350.0  -2275.681836   1172.620894     11.865773     49.096343
10400.0  -2278.976720   1179.305481     11.914281     49.133795
10450.0  -2281.581762   1185.657740     11.960423     49.163138
10500.0  -2283.480216   1191.667481     12.004136     49.184196
10550.0  -2284.655334   1197.324513     12.045355     49.196793
10600.0  -2285.090369   1202.618646     12.084017     49.200753
10650.0  -2284.768572   1207.539688     12.120057     49.195900
10700.0  -2283.673196   1212.077449     12.153410     49.182057
10750.0  -2281.787495   1216.221738     12.184013     49.159049
10800.0  -2279.094720   1219.962364     12.211802     49.126699
10850.0  -2275.578124   1223.289137     12.236712     49.084831
10900.0  -2271.220959   1226.191866     12.258679     49.033269
10950.0  -2266.006478   1228.660359     12.277639     48.971837
11000.0  -2259.917934   1230.684427     12.293528     48.900359
11050.0  -2252.938579   1232.253879     12.306281     48.818658
11100.0  -2245.051665   1233.358524     12.315834     48.726559
11150.0  -2236.240445   1233.988171     12.322124     48.623885
11200.0  -2226.488172   1234.132629     12.325085     48.510460
11250.0  -2215.778098   1233.781707     12.324654     48.386108
11300.0  -2204.093475   1232.925216     12.320766     48.250652
11350.0  -2191.417557   1231.552964     12.313358     48.103917
11400.0  -2177.733595   1229.654761     12.302364     47.945727
11450.0  -2163.024842   1227.220415     12.287721     47.775905
11500.0  -2147.274550   1224.239736     12.269365     47.594275
11550.0  -2130.465973   1220.702533     12.247232     47.400661
11600.0  -2112.582362   1216.598616     12.221257     47.194887
11650.0  -2093.606970   1211.917794     12.191376     46.976777
11700.0  -2073.523050   1206.649876     12.157524     46.746154
11750.0  -2052.313854   1200.784671     12.119638     46.502842
11800.0  -2029.962634   1194.311988     12.077654     46.246666
11850.0  -2006.452644   1187.221637     12.031506     45.977449
11900.0  -1981.767135   1179.503428     11.981132     45.695015
11950.0  -1955.889360   1171.147169     11.926467     45.399188
12000.0  -1928.802572   1162.142669     11.867446     45.089791
12050.0  -1900.490023   1152.479738     11.804005     44.766648
12100.0  -1870.934966   1142.148186     11.736081     44.429584
12150.0  -1840.120653   1131.137821     11.663609     44.078422
12200.0  -1808.030337   1119.438452     11.586525     43.712986
12250.0  -1774.647270   1107.039889     11.504764     43.333100
12300.0  -1739.954704   1093.931942     11.418262     42.938588
12350.0  -1703.935893   1080.104419     11.326956     42.529273
12400.0  -1666.574088   1065.547129     11.230781     42.104980
12450.0  -1627.852543   1050.249883     11.129672     41.665531
12500.0  -1587.754510   1034.202489     11.023566     41.210752
12550.0  -1546.263241   1017.394756     10.912398     40.740466
12600.0  -1503.361988    999.816494     10.796105     40.254497
12650.0  -1459.034005    981.457512     10.674622     39.752668
12700.0  -1413.262543    962.307620     10.547884     39.234804
12750.0  -1366.030856    942.356626     10.415828     38.700728
12800.0  -1317.322195    921.594339     10.278389     38.150264
12850.0  -1267.119814    900.010570     10.135504     37.583236
12900.0  -1215.406964    877.595127      9.987107     36.999468
12950.0  -1162.166899    854.337821      9.833135     36.398784
13000.0  -1107.382871    830.228458      9.673523     35.781007
13050.0  -1051.038132    805.256848      9.508208     35.145962
13100.0   -993.115935    779.412804      9.337126     34.493472
13150.0   -933.599533    752.686139      9.160211     33.823361
13200.0   -872.472177    725.066641      8.977399     33.135453
13250.0   -809.717120    696.544115      8.788627     32.429572
13300.0   -745.317615    667.108443      8.593831     31.705541
13350.0   -679.256915    636.749453      8.392945     30.963185
13400.0   -611.518272    605.456684      8.185907     30.202327
13450.0   -542.084938    573.219874      7.972652     29.422792
13500.0   -470.940166    540.029837      7.753115     28.624402
13550.0   -398.067208    505.876650      7.527232     27.806982
13600.0   -323.449317    470.746377      7.294939     26.970356
13650.0   -247.069746    434.627822      7.056172     26.114348
13700.0   -168.911747    397.524778      6.810867     25.238781
13750.0    -88.958572    359.430800      6.558959     24.343479
13800.0     -7.193474    320.283515      6.300385     23.428267
13850.0     76.400295    280.058751      6.035080     22.492968
13900.0    161.839481    238.941060      5.762980     21.537404
13950.0    249.140833    196.972432      5.484020     20.561399
14000.0    338.321098    153.415889      5.198137     19.564784
14050.0    429.397024    108.066496      4.905266     18.547384
14100.0    522.385357     63.626475      4.605343     17.508997
14150.0    617.302845     24.626011      4.298304     16.449440
14200.0    714.166237      0.000000      3.984085     15.368635
14250.0    812.992280      0.000000      3.662621     14.266430
14300.0    913.797720      0.000000      3.333849     13.142287
14350.0   1016.599305      1.197055      2.997704     11.995933
14400.0   1121.413784      0.000000      2.654121     10.828545
14450.0   1228.257904      0.000000      2.303037      9.640310
14500.0   1337.148411      0.000000      1.944387      8.426000
14550.0   1448.102053      0.086063      1.578108      7.184086
14600.0   1561.135578      0.000000      1.204135      5.933242
14650.0   1676.265734      0.000000      0.822404      4.678342
14700.0   1793.509268      0.000000      0.432850      3.348861
14750.0   1912.882927      0.007824      0.035410      1.925772
14800.0   2034.403458      0.000000     -0.369981      0.671450
14850.0   2158.087610      0.000000     -0.783387      0.000000
14900.0   2283.952130      0.000000     -1.204873      0.000000
14950.0   2412.013767      0.039119     -1.634503      1.248320
