#Lambda        Dielectric Constant          Refractive Index
# [nm]        [Real]        [Imag]        [Real]        [Imag]
  188.0     -0.907599      2.515620      0.939893      1.338285
  189.0     -0.942471      2.541061      0.940244      1.351505
  190.0     -0.975113      2.573947      0.942784      1.365277
  191.0     -1.006063      2.612335      0.946951      1.379417
  192.0     -1.035857      2.654281      0.952186      1.393739
  193.0     -1.065032      2.697843      0.957927      1.408062
  194.0     -1.094123      2.741078      0.963613      1.422199
  195.0     -1.123668      2.782044      0.968683      1.435969
  196.0     -1.154192      2.819004      0.972629      1.449216
  197.0     -1.186109      2.852368      0.975490      1.462105
  198.0     -1.219767      2.883811      0.977624      1.474985
  199.0     -1.255515      2.915025      0.979397      1.488210
  200.0     -1.293700      2.947700      0.981172      1.502132
  201.0     -1.334100      2.983000      0.983270      1.516878
  202.0     -1.374400      3.020100      0.985832      1.531752
  203.0     -1.412400      3.058200      0.988989      1.546124
  204.0     -1.446300      3.096900      0.992894      1.559532
  205.0     -1.476100      3.135900      0.997457      1.571948
  206.0     -1.502900      3.175300      1.002524      1.583652
  207.0     -1.527900      3.215400      1.007982      1.594969
  208.0     -1.552300      3.256200      1.013652      1.606173
  209.0     -1.576300      3.298100      1.019591      1.617364
  210.0     -1.599900      3.341600      1.025904      1.628613
  211.0     -1.622800      3.387200      1.032733      1.639920
  212.0     -1.644800      3.435600      1.040248      1.651337
  213.0     -1.665700      3.486800      1.048460      1.662819
  214.0     -1.684900      3.540100      1.057287      1.674143
  215.0     -1.701700      3.594300      1.066555      1.685004
  216.0     -1.715600      3.648500      1.076134      1.695189
  217.0     -1.726000      3.701400      1.085828      1.704413
  218.0     -1.732900      3.753100      1.095662      1.712710
  219.0     -1.737100      3.803700      1.105551      1.720274
  220.0     -1.739300      3.853900      1.115550      1.727354
  221.0     -1.740100      3.904000      1.125643      1.734120
  222.0     -1.740300      3.954400      1.135805      1.740791
  223.0     -1.740100      4.005300      1.146051      1.747436
  224.0     -1.739200      4.056300      1.156337      1.753943
  225.0     -1.737400      4.107400      1.166692      1.760276
  226.0     -1.734500      4.158300      1.177083      1.766359
  227.0     -1.730200      4.208800      1.187510      1.772112
  228.0     -1.724700      4.258300      1.197834      1.777500
  229.0     -1.718000      4.306300      1.207963      1.782463
  230.0     -1.710200      4.351900      1.217718      1.786907
  231.0     -1.701500      4.394600      1.226987      1.790809
  232.0     -1.692000      4.433700      1.235634      1.794099
  233.0     -1.681200      4.469800      1.243848      1.796763
  234.0     -1.668500      4.504200      1.251959      1.798861
  235.0     -1.653000      4.538000      1.260295      1.800373
  236.0     -1.634200      4.572800      1.269220      1.801421
  237.0     -1.611100      4.609700      1.279068      1.801976
  238.0     -1.583500      4.649500      1.290010      1.802117
  239.0     -1.552500      4.691000      1.301677      1.801906
  240.0     -1.520100      4.731800      1.313368      1.801399
  241.0     -1.488100      4.769900      1.324488      1.800658
  242.0     -1.458300      4.803100      1.334410      1.799709
  243.0     -1.432600      4.829300      1.342518      1.798598
  244.0     -1.411400      4.847800      1.348644      1.797287
  245.0     -1.392700      4.860100      1.353331      1.795607
  246.0     -1.374500      4.868300      1.357224      1.793477
  247.0     -1.354700      4.874000      1.360894      1.790735
  248.0     -1.331300      4.879100      1.364948      1.787284
  249.0     -1.302200      4.885400      1.369995      1.782999
  250.0     -1.266100      4.894100      1.376430      1.777824
  251.0     -1.224500      4.903800      1.383812      1.771845
  252.0     -1.179600      4.912400      1.391482      1.765169
  253.0     -1.133800      4.917900      1.398768      1.757940
  254.0     -1.089300      4.918200      1.405007      1.750241
  255.0     -1.048300      4.911300      1.409545      1.742158
  256.0     -1.012800      4.895600      1.411819      1.733792
  257.0     -0.982300      4.873100      1.412236      1.725314
  258.0     -0.955600      4.846800      1.411472      1.716931
  259.0     -0.931400      4.819700      1.410225      1.708840
  260.0     -0.908500      4.795200      1.409256      1.701324
  261.0     -0.885600      4.776100      1.409239      1.694567
  262.0     -0.861500      4.765600      1.410912      1.688837
  263.0     -0.835800      4.764600      1.414488      1.684214
  264.0     -0.808900      4.771000      1.419540      1.680474
  265.0     -0.781500      4.782600      1.425575      1.677428
  266.0     -0.754300      4.797200      1.432103      1.674879
  267.0     -0.727700      4.812700      1.438698      1.672589
  268.0     -0.702500      4.826800      1.444845      1.670352
  269.0     -0.679300      4.837400      1.450097      1.667957
  270.0     -0.658500      4.842700      1.454092      1.665198
  271.0     -0.640100      4.843300      1.456934      1.662155
  272.0     -0.623900      4.840100      1.458809      1.658922
  273.0     -0.609900      4.834000      1.459867      1.655630
  274.0     -0.597900      4.825900      1.460291      1.652377
  275.0     -0.587600      4.816900      1.460309      1.649274
  276.0     -0.579000      4.807800      1.460058      1.646441
  277.0     -0.572000      4.799500      1.459703      1.643999
  278.0     -0.566400      4.791900      1.459256      1.641898
  279.0     -0.562300      4.784600      1.458634      1.640096
  280.0     -0.559600      4.777400      1.457817      1.638545
  281.0     -0.558300      4.769700      1.456702      1.637157
  282.0     -0.558400      4.761300      1.455255      1.635899
  283.0     -0.559900      4.751700      1.453388      1.634698
  284.0     -0.562700      4.740600      1.451065      1.633490
  285.0     -0.566800      4.727700      1.448233      1.632231
  286.0     -0.572400      4.713200      1.444893      1.630986
  287.0     -0.579500      4.698000      1.441198      1.629894
  288.0     -0.588200      4.682900      1.437271      1.629094
  289.0     -0.598700      4.668600      1.433201      1.628731
  290.0     -0.611100      4.656100      1.429149      1.628977
  291.0     -0.625500      4.646100      1.425222      1.629956
  292.0     -0.642100      4.639400      1.421535      1.631828
  293.0     -0.660900      4.636900      1.418249      1.634727
  294.0     -0.681900      4.638400      1.415337      1.638621
  295.0     -0.704700      4.643300      1.412758      1.643346
  296.0     -0.728900      4.650800      1.410438      1.648707
  297.0     -0.754300      4.660200      1.408288      1.654562
  298.0     -0.780400      4.670700      1.406245      1.660700
  299.0     -0.806900      4.681600      1.404231      1.666962
  300.0     -0.833500      4.692100      1.402151      1.673179
  301.0     -0.859800      4.701500      1.399942      1.679177
  302.0     -0.885600      4.709200      1.397524      1.684837
  303.0     -0.910700      4.715500      1.394980      1.690168
  304.0     -0.935200      4.720900      1.392379      1.695264
  305.0     -0.959100      4.726000      1.389827      1.700212
  306.0     -0.982400      4.731100      1.387375      1.705054
  307.0     -1.005100      4.736900      1.385146      1.709892
  308.0     -1.027100      4.743600      1.383189      1.714733
  309.0     -1.048500      4.751900      1.381611      1.719695
  310.0     -1.069300      4.762300      1.380502      1.724844
  311.0     -1.089400      4.775100      1.379926      1.730201
  312.0     -1.109000      4.790500      1.379890      1.735827
  313.0     -1.128100      4.807900      1.380285      1.741633
  314.0     -1.147000      4.826500      1.380927      1.747558
  315.0     -1.165900      4.845400      1.381629      1.753510
  316.0     -1.184800      4.863900      1.382267      1.759392
  317.0     -1.204100      4.881300      1.382664      1.765180
  318.0     -1.223900      4.896700      1.382649      1.770768
  319.0     -1.244400      4.909300      1.382056      1.776085
  320.0     -1.265700      4.918500      1.380769      1.781073
  321.0     -1.288000      4.923500      1.378620      1.785663
  322.0     -1.311200      4.924300      1.375623      1.789843
  323.0     -1.335100      4.921800      1.371963      1.793707
  324.0     -1.359300      4.916800      1.367833      1.797295
  325.0     -1.383500      4.910100      1.363413      1.800665
  326.0     -1.407400      4.902500      1.358881      1.803873
  327.0     -1.430700      4.894800      1.354420      1.806973
  328.0     -1.453000      4.887700      1.350204      1.809986
  329.0     -1.474200      4.882200      1.346424      1.813025
  330.0     -1.493800      4.878900      1.343254      1.816076
  331.0     -1.511600      4.878800      1.340896      1.819231
  332.0     -1.527200      4.882500      1.339510      1.822495
  333.0     -1.540700      4.890300      1.339134      1.825919
  334.0     -1.552300      4.901600      1.339632      1.829457
  335.0     -1.562500      4.916100      1.340883      1.833158
  336.0     -1.571500      4.933000      1.342715      1.836950
  337.0     -1.579700      4.952000      1.345021      1.840864
  338.0     -1.587300      4.972500      1.347665      1.844858
  339.0     -1.594800      4.994000      1.350493      1.848954
  340.0     -1.602500      5.015900      1.353360      1.853128
  341.0     -1.610600      5.037700      1.356152      1.857350
  342.0     -1.619600      5.059000      1.358736      1.861656
  343.0     -1.629700      5.079200      1.360983      1.866005
  344.0     -1.641100      5.098100      1.362833      1.870405
  345.0     -1.653600      5.115800      1.364333      1.874835
  346.0     -1.667100      5.132400      1.365515      1.879290
  347.0     -1.681300      5.148200      1.366471      1.883758
  348.0     -1.696200      5.163200      1.367201      1.888237
  349.0     -1.711500      5.177600      1.367780      1.892702
  350.0     -1.727200      5.191600      1.368242      1.897179
  351.0     -1.743000      5.205300      1.368644      1.901627
  352.0     -1.758800      5.218800      1.369014      1.906043
  353.0     -1.774500      5.232300      1.369401      1.910434
  354.0     -1.789800      5.245900      1.369858      1.914761
  355.0     -1.804700      5.259700      1.370401      1.919036
  356.0     -1.819100      5.273800      1.371061      1.923255
  357.0     -1.833400      5.287900      1.371736      1.927449
  358.0     -1.847600      5.302000      1.372424      1.931618
  359.0     -1.861900      5.316000      1.373086      1.935785
  360.0     -1.876500      5.329600      1.373645      1.939948
  361.0     -1.891500      5.342800      1.374089      1.944125
  362.0     -1.907300      5.355400      1.374336      1.948358
  363.0     -1.923800      5.367300      1.374383      1.952621
  364.0     -1.941300      5.378400      1.374177      1.956953
  365.0     -1.960000      5.388500      1.373662      1.961363
  366.0     -1.980100      5.397500      1.372797      1.965877
  367.0     -2.001700      5.405300      1.371556      1.970499
  368.0     -2.024900      5.411800      1.369912      1.975236
  369.0     -2.050000      5.416800      1.367797      1.980118
  370.0     -2.076600      5.420600      1.365312      1.985114
  371.0     -2.104600      5.423300      1.362488      1.990219
  372.0     -2.133600      5.425100      1.359407      1.995392
  373.0     -2.163400      5.426300      1.356146      2.000633
  374.0     -2.193800      5.427100      1.352762      2.005933
  375.0     -2.224400      5.427600      1.349320      2.011235
  376.0     -2.255100      5.428100      1.345883      2.016557
  377.0     -2.285500      5.428700      1.342514      2.021842
  378.0     -2.315400      5.429800      1.339303      2.027099
  379.0     -2.344500      5.431500      1.336301      2.032289
  380.0     -2.372500      5.433900      1.333558      2.037370
  381.0     -2.399300      5.437300      1.331134      2.042356
  382.0     -2.424500      5.442000      1.329125      2.047211
  383.0     -2.448100      5.447900      1.327511      2.051922
  384.0     -2.470300      5.454900      1.326251      2.056512
  385.0     -2.491400      5.462900      1.325291      2.061018
  386.0     -2.511400      5.471700      1.324598      2.065420
  387.0     -2.530600      5.481200      1.324118      2.069755
  388.0     -2.549200      5.491300      1.323812      2.074049
  389.0     -2.567500      5.501700      1.323595      2.078317
  390.0     -2.585600      5.512400      1.323455      2.082579
  391.0     -2.603700      5.523200      1.323337      2.086845
  392.0     -2.622100      5.534100      1.323208      2.091167
  393.0     -2.640900      5.544700      1.322989      2.095519
  394.0     -2.660300      5.555000      1.322660      2.099935
  395.0     -2.680700      5.564900      1.322160      2.104473
  396.0     -2.702000      5.574200      1.321468      2.109094
  397.0     -2.724600      5.582700      1.320508      2.113845
  398.0     -2.748700      5.590400      1.319261      2.118762
  399.0     -2.774300      5.597200      1.317712      2.123833
  400.0     -2.801300      5.603200      1.315890      2.129053
  401.0     -2.829500      5.608500      1.313835      2.134400
  402.0     -2.858800      5.613200      1.311577      2.139868
  403.0     -2.889100      5.617300      1.309126      2.145439
  404.0     -2.920400      5.621000      1.306518      2.151137
  405.0     -2.952300      5.624300      1.303797      2.156893
  406.0     -2.985000      5.627300      1.300959      2.162751
  407.0     -3.018100      5.630200      1.298079      2.168666
  408.0     -3.051700      5.633000      1.295150      2.174652
  409.0     -3.085600      5.635800      1.292207      2.180688
  410.0     -3.119600      5.638600      1.289272      2.186738
  411.0     -3.153600      5.641700      1.286406      2.192815
  412.0     -3.187600      5.645000      1.283591      2.198910
  413.0     -3.221400      5.648600      1.280863      2.204997
  414.0     -3.254800      5.652700      1.278277      2.211062
  415.0     -3.287900      5.657200      1.275805      2.217110
  416.0     -3.320600      5.662200      1.273472      2.223135
  417.0     -3.353000      5.667500      1.271234      2.229133
  418.0     -3.384900      5.673200      1.269127      2.235080
  419.0     -3.416500      5.679200      1.267113      2.240999
  420.0     -3.447600      5.685600      1.265229      2.246866
  421.0     -3.478400      5.692100      1.263404      2.252685
  422.0     -3.508700      5.699000      1.261705      2.258451
  423.0     -3.538700      5.706000      1.260065      2.264169
  424.0     -3.568100      5.713200      1.258526      2.269799
  425.0     -3.597200      5.720500      1.257043      2.275380
  426.0     -3.625800      5.728000      1.255650      2.280890
  427.0     -3.654000      5.735500      1.254305      2.286325
  428.0     -3.681700      5.743100      1.253033      2.291679
  429.0     -3.709000      5.750700      1.251807      2.296959
  430.0     -3.735700      5.758300      1.250645      2.302132
  431.0     -3.762000      5.765800      1.249511      2.307223
  432.0     -3.787900      5.773300      1.248421      2.312240
  433.0     -3.813300      5.780800      1.247385      2.317168
  434.0     -3.838200      5.788300      1.246400      2.322006
  435.0     -3.862700      5.795900      1.245476      2.326781
  436.0     -3.886800      5.803500      1.244594      2.331483
  437.0     -3.910500      5.811200      1.243771      2.336122
  438.0     -3.933900      5.819100      1.243014      2.340723
  439.0     -3.956800      5.827100      1.242323      2.345243
  440.0     -3.979400      5.835200      1.241681      2.349717
  441.0     -4.001700      5.843600      1.241121      2.354162
  442.0     -4.023700      5.852300      1.240641      2.358578
  443.0     -4.045400      5.861200      1.240226      2.362956
  444.0     -4.066800      5.870400      1.239891      2.367304
  445.0     -4.087900      5.879900      1.239636      2.371623
  446.0     -4.108700      5.889800      1.239477      2.375922
  447.0     -4.129400      5.900100      1.239396      2.380232
  448.0     -4.149800      5.910800      1.239411      2.384521
  449.0     -4.170000      5.922000      1.239528      2.388813
  450.0     -4.190000      5.933600      1.239730      2.393101
  451.0     -4.209800      5.945700      1.240035      2.397392
  452.0     -4.229500      5.958300      1.240433      2.401702
  453.0     -4.249000      5.971400      1.240931      2.406015
  454.0     -4.268400      5.984800      1.241489      2.410331
  455.0     -4.287600      5.998600      1.242131      2.414641
  456.0     -4.306800      6.012600      1.242807      2.418960
  457.0     -4.325900      6.026700      1.243508      2.423265
  458.0     -4.344900      6.041000      1.244252      2.427563
  459.0     -4.363900      6.055300      1.244996      2.431854
  460.0     -4.382900      6.069500      1.245726      2.436131
  461.0     -4.401800      6.083700      1.246464      2.440384
  462.0     -4.420700      6.097600      1.247154      2.444605
  463.0     -4.439600      6.111300      1.247813      2.448803
  464.0     -4.458600      6.124700      1.248417      2.452987
  465.0     -4.477600      6.137700      1.248957      2.457131
  466.0     -4.496600      6.150200      1.249417      2.461228
  467.0     -4.515800      6.162200      1.249782      2.465310
  468.0     -4.535000      6.173600      1.250052      2.469338
  469.0     -4.554300      6.184300      1.250203      2.473319
  470.0     -4.573800      6.194300      1.250227      2.477270
  471.0     -4.593300      6.203400      1.250109      2.481143
  472.0     -4.613100      6.211700      1.249841      2.484996
  473.0     -4.632900      6.219100      1.249432      2.488771
  474.0     -4.653000      6.225600      1.248858      2.492518
  475.0     -4.673100      6.231300      1.248159      2.496197
  476.0     -4.693300      6.236300      1.247343      2.499833
  477.0     -4.713600      6.240600      1.246412      2.503426
  478.0     -4.733900      6.244300      1.245388      2.506969
  479.0     -4.754200      6.247400      1.244273      2.510461
  480.0     -4.774600      6.249900      1.243059      2.513920
  481.0     -4.795000      6.251900      1.241768      2.517338
  482.0     -4.815300      6.253500      1.240426      2.520706
  483.0     -4.835600      6.254600      1.239009      2.524033
  484.0     -4.855800      6.255500      1.237572      2.527328
  485.0     -4.875900      6.256000      1.236083      2.530574
  486.0     -4.895900      6.256300      1.234575      2.533787
  487.0     -4.915800      6.256300      1.233031      2.536960
  488.0     -4.935500      6.256300      1.231507      2.540100
  489.0     -4.955100      6.256100      1.229962      2.543208
  490.0     -4.974500      6.255900      1.228438      2.546283
  491.0     -4.993700      6.255600      1.226916      2.549318
  492.0     -5.012600      6.255400      1.225438      2.552312
  493.0     -5.031300      6.255400      1.224010      2.555289
  494.0     -5.049700      6.255400      1.222609      2.558217
  495.0     -5.067900      6.255700      1.221275      2.561135
  496.0     -5.085700      6.256200      1.220006      2.564004
  497.0     -5.103200      6.256900      1.218795      2.566839
  498.0     -5.120400      6.257900      1.217657      2.569648
  499.0     -5.137200      6.259000      1.216568      2.572399
  500.0     -5.153700      6.260200      1.215521      2.575110
  501.0     -5.169900      6.261400      1.214499      2.577772
  502.0     -5.185600      6.262400      1.213484      2.580338
  503.0     -5.201100      6.263200      1.212456      2.582857
  504.0     -5.216100      6.263800      1.211435      2.585281
  505.0     -5.230800      6.264100      1.210392      2.587634
  506.0     -5.245100      6.263900      1.209300      2.589886
  507.0     -5.259000      6.263200      1.208162      2.592037
  508.0     -5.272500      6.261900      1.206960      2.594080
  509.0     -5.285600      6.259900      1.205678      2.596008
  510.0     -5.298300      6.257200      1.204317      2.597822
  511.0     -5.310600      6.253700      1.202860      2.599514
  512.0     -5.322400      6.249200      1.201282      2.601054
  513.0     -5.333800      6.243800      1.199593      2.602465
  514.0     -5.344800      6.237300      1.197761      2.603734
  515.0     -5.355400      6.229600      1.195768      2.604853
  516.0     -5.365500      6.220800      1.193638      2.605815
  517.0     -5.375200      6.210600      1.191316      2.606613
  518.0     -5.384400      6.199000      1.188808      2.607233
  519.0     -5.393100      6.185900      1.186098      2.607667
  520.0     -5.401400      6.171300      1.183179      2.607932
  521.0     -5.409200      6.155100      1.180040      2.608006
  522.0     -5.416500      6.137100      1.176649      2.607873
  523.0     -5.423400      6.117500      1.173029      2.607565
  524.0     -5.429900      6.096400      1.169196      2.607090
  525.0     -5.436000      6.073700      1.165133      2.606441
  526.0     -5.441900      6.049600      1.160856      2.605664
  527.0     -5.447500      6.024000      1.156355      2.604737
  528.0     -5.452900      5.997200      1.151670      2.603698
  529.0     -5.458200      5.969100      1.146777      2.602556
  530.0     -5.463300      5.939800      1.141697      2.601302
  531.0     -5.468400      5.909400      1.136433      2.599977
  532.0     -5.473500      5.877900      1.130983      2.598581
  533.0     -5.478600      5.845500      1.125378      2.597128
  534.0     -5.483900      5.812100      1.119587      2.595645
  535.0     -5.489200      5.777800      1.113639      2.594107
  536.0     -5.494700      5.742700      1.107537      2.592554
  537.0     -5.500500      5.706900      1.101288      2.591011
  538.0     -5.506500      5.670500      1.094916      2.589467
  539.0     -5.512900      5.633400      1.088390      2.587951
  540.0     -5.519600      5.595800      1.081748      2.586461
  541.0     -5.526700      5.557800      1.075001      2.585020
  542.0     -5.534400      5.519300      1.068118      2.583656
  543.0     -5.542500      5.480500      1.061146      2.582350
  544.0     -5.551200      5.441400      1.054071      2.581136
  545.0     -5.560500      5.402100      1.046909      2.580023
  546.0     -5.570400      5.362600      1.039662      2.579011
  547.0     -5.581000      5.323100      1.032356      2.578131
  548.0     -5.592400      5.283500      1.024969      2.577394
  549.0     -5.604600      5.244100      1.017552      2.576822
  550.0     -5.617700      5.204600      1.010048      2.576412
  551.0     -5.631600      5.165300      1.002516      2.576167
  552.0     -5.646500      5.125900      0.994894      2.576104
  553.0     -5.662500      5.086600      0.987209      2.576253
  554.0     -5.679400      5.047200      0.979442      2.576569
  555.0     -5.697500      5.007700      0.971576      2.577103
  556.0     -5.716800      4.968100      0.963611      2.577857
  557.0     -5.737300      4.928400      0.955549      2.578832
  558.0     -5.759100      4.888500      0.947369      2.580040
  559.0     -5.782300      4.848400      0.939066      2.581501
  560.0     -5.806800      4.808100      0.930649      2.583197
  561.0     -5.832800      4.767400      0.922073      2.585153
  562.0     -5.860300      4.726500      0.913374      2.587383
  563.0     -5.889300      4.685300      0.904539      2.589882
  564.0     -5.920000      4.643600      0.895523      2.592675
  565.0     -5.952300      4.601600      0.886370      2.595756
  566.0     -5.986400      4.559100      0.877036      2.599152
  567.0     -6.022200      4.516200      0.867548      2.602852
  568.0     -6.059900      4.472800      0.857881      2.606887
  569.0     -6.099400      4.428800      0.848028      2.611236
  570.0     -6.140900      4.384300      0.837997      2.615939
  571.0     -6.184400      4.339200      0.827777      2.620995
  572.0     -6.230000      4.293400      0.817350      2.626416
  573.0     -6.277600      4.247000      0.806742      2.632192
  574.0     -6.327400      4.199900      0.795932      2.638353
  575.0     -6.379400      4.152100      0.784925      2.644902
  576.0     -6.433700      4.103500      0.773705      2.651852
  577.0     -6.490400      4.054200      0.762289      2.659226
  578.0     -6.549400      4.004000      0.750656      2.666999
  579.0     -6.610800      3.952900      0.738808      2.675189
  580.0     -6.674800      3.901000      0.726758      2.683836
  581.0     -6.741200      3.848100      0.714491      2.692897
  582.0     -6.810300      3.794300      0.702016      2.702430
  583.0     -6.882000      3.739500      0.689331      2.712412
  584.0     -6.956300      3.683800      0.676461      2.722848
  585.0     -7.033100      3.627300      0.663436      2.733724
  586.0     -7.112300      3.570000      0.650268      2.745022
  587.0     -7.193700      3.512100      0.637008      2.756715
  588.0     -7.277300      3.453700      0.623681      2.768804
  589.0     -7.362900      3.394800      0.610301      2.781253
  590.0     -7.450600      3.335500      0.596887      2.794078
  591.0     -7.540100      3.275900      0.583475      2.807231
  592.0     -7.631300      3.216100      0.570091      2.820692
  593.0     -7.724300      3.156200      0.556751      2.834479
  594.0     -7.818800      3.096300      0.543489      2.848540
  595.0     -7.914700      3.036500      0.530327      2.862856
  596.0     -8.012000      2.976800      0.517268      2.877424
  597.0     -8.110600      2.917400      0.504352      2.892226
  598.0     -8.210300      2.858300      0.491586      2.907225
  599.0     -8.311100      2.799700      0.479004      2.922421
  600.0     -8.412900      2.741600      0.466609      2.937792
  601.0     -8.515500      2.684100      0.454423      2.953303
  602.0     -8.618800      2.627200      0.442449      2.968933
  603.0     -8.722800      2.571200      0.430733      2.984683
  604.0     -8.827400      2.516100      0.419276      3.000532
  605.0     -8.932400      2.461900      0.408080      3.016443
  606.0     -9.037700      2.408800      0.397177      3.032400
  607.0     -9.143300      2.356900      0.386580      3.048400
  608.0     -9.249000      2.306100      0.376272      3.064405
  609.0     -9.354800      2.256700      0.366298      3.080418
  610.0     -9.460500      2.208800      0.356672      3.096404
  611.0     -9.566000      2.162300      0.347375      3.112341
  612.0     -9.671300      2.117400      0.338434      3.128232
  613.0     -9.776200      2.074300      0.329878      3.144045
  614.0     -9.880700      2.032900      0.321684      3.159775
  615.0     -9.984500      1.993300      0.313868      3.175376
  616.0    -10.087800      1.955800      0.306467      3.190881
  617.0    -10.190200      1.920200      0.299449      3.206224
  618.0    -10.291800      1.886800      0.292852      3.221422
  619.0    -10.392500      1.855500      0.286656      3.236460
  620.0    -10.492500      1.826100      0.280821      3.251363
  621.0    -10.591600      1.798700      0.275359      3.266102
  622.0    -10.689900      1.773200      0.270248      3.280691
  623.0    -10.787500      1.749600      0.265481      3.295145
  624.0    -10.884300      1.727700      0.261026      3.309446
  625.0    -10.980400      1.707600      0.256889      3.323611
  626.0    -11.075700      1.689100      0.253039      3.337623
  627.0    -11.170400      1.672300      0.249484      3.351513
  628.0    -11.264400      1.657000      0.246192      3.365265
  629.0    -11.357700      1.643200      0.243158      3.378879
  630.0    -11.450400      1.630900      0.240378      3.392371
  631.0    -11.542500      1.619900      0.237819      3.405739
  632.0    -11.634000      1.610300      0.235494      3.418985
  633.0    -11.724900      1.601900      0.233370      3.432107
  634.0    -11.815200      1.594800      0.231459      3.445109
  635.0    -11.905000      1.588800      0.229728      3.458002
  636.0    -11.994200      1.583900      0.228177      3.470773
  637.0    -12.083000      1.580100      0.226801      3.483452
  638.0    -12.171200      1.577300      0.225586      3.496010
  639.0    -12.259000      1.575400      0.224513      3.508476
  640.0    -12.346400      1.574300      0.223568      3.520850
  641.0    -12.433300      1.574100      0.222764      3.533118
  642.0    -12.519800      1.574700      0.222083      3.545296
  643.0    -12.605900      1.576000      0.221511      3.557382
  644.0    -12.691600      1.577900      0.221033      3.569377
  645.0    -12.776900      1.580400      0.220647      3.581283
  646.0    -12.861900      1.583400      0.220338      3.593111
  647.0    -12.946600      1.586900      0.220105      3.604864
  648.0    -13.031000      1.590900      0.219948      3.616542
  649.0    -13.115100      1.595200      0.219837      3.628144
  650.0    -13.199000      1.599800      0.219772      3.639684
  651.0    -13.282600      1.604700      0.219753      3.651149
  652.0    -13.366000      1.609800      0.219765      3.662553
  653.0    -13.449100      1.615000      0.219795      3.673882
  654.0    -13.532100      1.620300      0.219841      3.685164
  655.0    -13.614900      1.625600      0.219891      3.696384
  656.0    -13.697500      1.630900      0.219944      3.707543
  657.0    -13.780000      1.636100      0.219985      3.718655
  658.0    -13.862400      1.641200      0.220017      3.729719
  659.0    -13.944700      1.646000      0.220010      3.740736
  660.0    -14.027000      1.650600      0.219979      3.751718
  661.0    -14.109100      1.654900      0.219912      3.762640
  662.0    -14.191200      1.659000      0.219821      3.773529
  663.0    -14.273200      1.662800      0.219693      3.784371
  664.0    -14.355200      1.666300      0.219528      3.795180
  665.0    -14.437100      1.669600      0.219341      3.805944
  666.0    -14.518900      1.672700      0.219131      3.816663
  667.0    -14.600700      1.675600      0.218898      3.827351
  668.0    -14.682400      1.678400      0.218656      3.837996
  669.0    -14.764000      1.680900      0.218378      3.848596
  670.0    -14.845600      1.683200      0.218078      3.859165
  671.0    -14.927100      1.685500      0.217782      3.869694
  672.0    -15.008600      1.687600      0.217463      3.880192
  673.0    -15.090100      1.689500      0.217122      3.890661
  674.0    -15.171400      1.691400      0.216786      3.901076
  675.0    -15.252800      1.693100      0.216427      3.911476
  676.0    -15.334000      1.694800      0.216073      3.921822
  677.0    -15.415300      1.696400      0.215709      3.932153
  678.0    -15.496400      1.698000      0.215349      3.942433
  679.0    -15.577600      1.699500      0.214980      3.952697
  680.0    -15.658600      1.701000      0.214615      3.962910
  681.0    -15.739700      1.702400      0.214240      3.973109
  682.0    -15.820700      1.703900      0.213882      3.983271
  683.0    -15.901600      1.705400      0.213528      3.993394
  684.0    -15.982500      1.706900      0.213176      4.003491
  685.0    -16.063400      1.708400      0.212828      4.013564
  686.0    -16.144200      1.710000      0.212496      4.023600
  687.0    -16.225000      1.711700      0.212180      4.033611
  688.0    -16.305800      1.713400      0.211866      4.043598
  689.0    -16.386500      1.715300      0.211580      4.053550
  690.0    -16.467200      1.717200      0.211297      4.063477
  691.0    -16.547800      1.719300      0.211041      4.073369
  692.0    -16.628500      1.721500      0.210800      4.083251
  693.0    -16.709000      1.723800      0.210575      4.093085
  694.0    -16.789600      1.726400      0.210387      4.102909
  695.0    -16.870100      1.729000      0.210203      4.112698
  696.0    -16.950600      1.731900      0.210056      4.122466
  697.0    -17.031100      1.735000      0.209936      4.132212
  698.0    -17.111600      1.738300      0.209841      4.141936
  699.0    -17.192000      1.741800      0.209773      4.151627
  700.0    -17.272400      1.745600      0.209742      4.161297
  701.0    -17.352800      1.749600      0.209737      4.170946
  702.0    -17.433100      1.753900      0.209768      4.180562
  703.0    -17.513400      1.758400      0.209825      4.190158
  704.0    -17.593800      1.763300      0.209929      4.199746
  705.0    -17.674100      1.768500      0.210070      4.209303
  706.0    -17.754300      1.774000      0.210248      4.218827
  707.0    -17.834600      1.779700      0.210449      4.228343
  708.0    -17.914800      1.785800      0.210698      4.237829
  709.0    -17.995100      1.792200      0.210981      4.247307
  710.0    -18.075200      1.798800      0.211288      4.256741
  711.0    -18.155400      1.805700      0.211630      4.266168
  712.0    -18.235500      1.812900      0.212007      4.275564
  713.0    -18.315600      1.820300      0.212407      4.284941
  714.0    -18.395700      1.828000      0.212840      4.294299
  715.0    -18.475700      1.835800      0.213285      4.303625
  716.0    -18.555700      1.843900      0.213764      4.312933
  717.0    -18.635600      1.852200      0.214265      4.322211
  718.0    -18.715500      1.860700      0.214789      4.331470
  719.0    -18.795400      1.869400      0.215333      4.340711
  720.0    -18.875200      1.878300      0.215900      4.349921
  721.0    -18.954900      1.887400      0.216490      4.359102
  722.0    -19.034600      1.896600      0.217089      4.368264
  723.0    -19.114200      1.905900      0.217698      4.377396
  724.0    -19.193800      1.915400      0.218328      4.386510
  725.0    -19.273300      1.925100      0.218981      4.395595
  726.0    -19.352800      1.934800      0.219631      4.404661
  727.0    -19.432200      1.944700      0.220303      4.413698
  728.0    -19.511500      1.954700      0.220985      4.422707
  729.0    -19.590800      1.964700      0.221665      4.431697
  730.0    -19.670000      1.974900      0.222366      4.440658
  731.0    -19.749100      1.985100      0.223065      4.449591
  732.0    -19.828100      1.995400      0.223775      4.458495
  733.0    -19.907100      2.005800      0.224494      4.467382
  734.0    -19.986000      2.016200      0.225211      4.476240
  735.0    -20.064800      2.026600      0.225927      4.485069
  736.0    -20.143500      2.037100      0.226653      4.493870
  737.0    -20.222100      2.047600      0.227378      4.502644
  738.0    -20.300700      2.058100      0.228100      4.511400
  739.0    -20.379100      2.068600      0.228822      4.520117
  740.0    -20.457500      2.079100      0.229541      4.528818
  741.0    -20.535800      2.089600      0.230259      4.537490
  742.0    -20.613900      2.100100      0.230977      4.546125
  743.0    -20.692000      2.110500      0.231682      4.554742
  744.0    -20.770000      2.120900      0.232385      4.563332
  745.0    -20.847900      2.131200      0.233076      4.571895
  746.0    -20.925600      2.141400      0.233756      4.580419
  747.0    -21.003300      2.151600      0.234434      4.588928
  748.0    -21.080800      2.161700      0.235100      4.597398
  749.0    -21.158300      2.171700      0.235754      4.605853
  750.0    -21.235600      2.181600      0.236397      4.614270
  751.0    -21.312800      2.191400      0.237028      4.622660
  752.0    -21.389900      2.201100      0.237647      4.631023
  753.0    -21.466800      2.210600      0.238245      4.639349
  754.0    -21.543700      2.220000      0.238830      4.647660
  755.0    -21.620400      2.229200      0.239393      4.655933
  756.0    -21.697000      2.238300      0.239946      4.664180
  757.0    -21.773400      2.247200      0.240477      4.672390
  758.0    -21.849800      2.256000      0.240996      4.680585
  759.0    -21.926000      2.264600      0.241493      4.688744
  760.0    -22.002100      2.273000      0.241969      4.696877
  761.0    -22.078100      2.281300      0.242434      4.704984
  762.0    -22.154000      2.289400      0.242878      4.713066
  763.0    -22.229900      2.297400      0.243310      4.721133
  764.0    -22.305600      2.305300      0.243732      4.729165
  765.0    -22.381300      2.313000      0.244132      4.737183
  766.0    -22.457000      2.320600      0.244521      4.745186
  767.0    -22.532600      2.328100      0.244900      4.753165
  768.0    -22.608100      2.335500      0.245268      4.761119
  769.0    -22.683600      2.342700      0.245614      4.769059
  770.0    -22.759000      2.349900      0.245961      4.776976
  771.0    -22.834500      2.356900      0.246286      4.784888
  772.0    -22.909900      2.363900      0.246611      4.792778
  773.0    -22.985300      2.370800      0.246925      4.800653
  774.0    -23.060800      2.377500      0.247217      4.808525
  775.0    -23.136200      2.384200      0.247510      4.816374
  776.0    -23.211600      2.390900      0.247802      4.824210
  777.0    -23.287100      2.397400      0.248073      4.832043
  778.0    -23.362600      2.403900      0.248344      4.839863
  779.0    -23.438100      2.410400      0.248614      4.847670
  780.0    -23.513700      2.416700      0.248863      4.855475
  781.0    -23.589400      2.423100      0.249122      4.863277
  782.0    -23.665100      2.429300      0.249360      4.871066
  783.0    -23.740900      2.435600      0.249608      4.878853
  784.0    -23.816700      2.441800      0.249845      4.886627
  785.0    -23.892700      2.447900      0.250071      4.894409
  786.0    -23.968700      2.454100      0.250307      4.902178
  787.0    -24.044800      2.460200      0.250532      4.909946
  788.0    -24.121100      2.466300      0.250756      4.917721
  789.0    -24.197400      2.472400      0.250980      4.925484
  790.0    -24.273900      2.478500      0.251203      4.933255
  791.0    -24.350500      2.484600      0.251426      4.941024
  792.0    -24.427300      2.490700      0.251647      4.948800
  793.0    -24.504200      2.496800      0.251867      4.956575
  794.0    -24.581200      2.503000      0.252098      4.964348
  795.0    -24.658500      2.509100      0.252316      4.972139
  796.0    -24.735900      2.515300      0.252544      4.979928
  797.0    -24.813400      2.521500      0.252771      4.987714
  798.0    -24.891200      2.527700      0.252997      4.995519
  799.0    -24.969100      2.534000      0.253232      5.003322
  800.0    -25.047300      2.540300      0.253465      5.011142
  810.0    -25.844388      2.607106      0.256107      5.090220
  820.0    -26.671741      2.684286      0.259558      5.171001
  830.0    -27.532547      2.775322      0.264050      5.253595
  840.0    -28.421515      2.878313      0.269420      5.337512
  850.0    -29.330420      2.989492      0.275372      5.422047
  860.0    -30.251033      3.105090      0.281607      5.506498
  870.0    -31.175125      3.221338      0.287829      5.590164
  880.0    -32.094468      3.334468      0.293739      5.672341
  890.0    -33.000833      3.440710      0.299039      5.752327
  900.0    -33.887154      3.536760      0.303470      5.829522
  910.0    -34.754962      3.622750      0.307042      5.904074
  920.0    -35.609641      3.700347      0.309892      5.976468
  930.0    -36.456592      3.771230      0.312155      6.047192
  940.0    -37.301218      3.837075      0.313966      6.116733
  950.0    -38.148919      3.899559      0.315460      6.185578
  960.0    -39.005098      3.960358      0.316774      6.254214
  970.0    -39.875157      4.021151      0.318042      6.323127
  980.0    -40.764496      4.083612      0.319401      6.392805
  990.0    -41.678315      4.149398      0.320982      6.463715
 1000.0    -42.618752      4.219823      0.322871      6.536018
 1010.0    -43.585595      4.295944      0.325117      6.609640
 1020.0    -44.578569      4.378809      0.327767      6.684502
 1030.0    -45.597400      4.469469      0.330871      6.760524
 1040.0    -46.641815      4.568971      0.334477      6.837627
 1050.0    -47.711540      4.678366      0.338632      6.915732
 1060.0    -48.806300      4.798702      0.343384      6.994758
 1070.0    -49.925823      4.931029      0.348783      7.074627
 1080.0    -51.069833      5.076395      0.354876      7.155259
 1090.0    -52.238049      5.235844      0.361710      7.236573
 1100.0    -53.429222      5.409575      0.369290      7.318459
 1110.0    -54.640165      5.596107      0.377529      7.400735
 1120.0    -55.867463      5.793757      0.386330      7.483216
 1130.0    -57.107700      6.000844      0.395598      7.565715
 1140.0    -58.357462      6.215685      0.405235      7.648045
 1150.0    -59.613331      6.436598      0.415145      7.730020
 1160.0    -60.871894      6.661902      0.425231      7.811452
 1170.0    -62.129734      6.889915      0.435397      7.892155
 1180.0    -63.383436      7.118954      0.445547      7.971942
 1190.0    -64.629584      7.347337      0.455583      8.050627
 1200.0    -65.864763      7.573382      0.465409      8.128022
 1210.0    -67.085557      7.795408      0.474930      8.203941
 1220.0    -68.288648      8.011769      0.484049      8.278203
 1230.0    -69.473555      8.221866      0.492730      8.350784
 1240.0    -70.643037      8.426298      0.501002      8.421840
 1250.0    -71.800026      8.625729      0.508898      8.491537
 1260.0    -72.947454      8.820821      0.516450      8.560042
 1270.0    -74.088256      9.012240      0.523691      8.627521
 1280.0    -75.225363      9.200647      0.530653      8.694139
 1290.0    -76.361709      9.386706      0.537368      8.760063
 1300.0    -77.500227      9.571081      0.543869      8.825459
 1310.0    -78.643850      9.754435      0.550188      8.890493
 1320.0    -79.795509      9.937431      0.556359      8.955331
 1330.0    -80.958140     10.120733      0.562413      9.020139
 1340.0    -82.134674     10.305004      0.568383      9.085083
 1350.0    -83.328044     10.490908      0.574301      9.150330
 1360.0    -84.541184     10.679107      0.580200      9.216045
 1370.0    -85.777025     10.870266      0.586113      9.282394
 1380.0    -87.038503     11.065047      0.592071      9.349545
 1390.0    -88.328548     11.264115      0.598108      9.417661
 1400.0    -89.649874     11.468094      0.604253      9.486899
 1410.0    -91.002842     11.677207      0.610519      9.557281
 1420.0    -92.386389     11.891428      0.616904      9.628751
 1430.0    -93.799429     12.110731      0.623408      9.701254
 1440.0    -95.240879     12.335090      0.630030      9.774733
 1450.0    -96.709653     12.564475      0.636769      9.849130
 1460.0    -98.204669     12.798862      0.643624      9.924391
 1470.0    -99.724841     13.038221      0.650594     10.000457
 1480.0   -101.269086     13.282527      0.657679     10.077273
 1490.0   -102.836319     13.531752      0.664878     10.154782
 1500.0   -104.425457     13.785868      0.672189     10.232928
 1510.0   -106.035413     14.044849      0.679613     10.311653
 1520.0   -107.665106     14.308668      0.687148     10.390902
 1530.0   -109.313449     14.577296      0.694793     10.470618
 1540.0   -110.979360     14.850708      0.702547     10.550745
 1550.0   -112.661753     15.128875      0.710411     10.631225
 1560.0   -114.359545     15.411771      0.718382     10.712002
 1570.0   -116.071652     15.699369      0.726461     10.793021
 1580.0   -117.796988     15.991641      0.734645     10.874223
 1590.0   -119.534470     16.288560      0.742936     10.955554
 1600.0   -121.283014     16.590099      0.751330     11.036956
 1610.0   -123.041535     16.896231      0.759829     11.118372
 1620.0   -124.808949     17.206928      0.768431     11.199746
 1630.0   -126.584173     17.522164      0.777134     11.281023
 1640.0   -128.366120     17.841911      0.785939     11.362144
 1650.0   -130.153708     18.166142      0.794845     11.443054
 1660.0   -131.945853     18.494830      0.803850     11.523696
 1670.0   -133.741469     18.827947      0.812954     11.604013
 1680.0   -135.539472     19.165467      0.822156     11.683949
 1690.0   -137.338780     19.507362      0.831455     11.763448
 1700.0   -139.138306     19.853606      0.840850     11.842453
 1710.0   -140.936967     20.204170      0.850342     11.920907
 1720.0   -142.733679     20.559029      0.859927     11.998754
 1730.0   -144.527358     20.918153      0.869607     12.075937
 1740.0   -146.316918     21.281518      0.879380     12.152400
 1750.0   -148.101277     21.649094      0.889244     12.228087
 1760.0   -149.879349     22.020856      0.899201     12.302940
 1770.0   -151.650051     22.396775      0.909248     12.376903
 1780.0   -153.412298     22.776825      0.919384     12.449920
 1790.0   -155.165006     23.160979      0.929610     12.521935
 1800.0   -156.907091     23.549209      0.939923     12.592889
 1810.0   -158.637468     23.941488      0.950324     12.662728
 1820.0   -160.355054     24.337789      0.960812     12.731395
 1830.0   -162.058764     24.738085      0.971385     12.798832
 1840.0   -163.747513     25.142349      0.982042     12.864984
 1850.0   -165.420218     25.550552      0.992784     12.929794
 1860.0   -167.075795     25.962670      1.003609     12.993206
 1870.0   -168.713158     26.378673      1.014516     13.055162
 1880.0   -170.331224     26.798535      1.025505     13.115607
 1890.0   -171.928909     27.222229      1.036574     13.174483
 1900.0   -173.505129     27.649727      1.047723     13.231735
 1910.0   -175.058798     28.081003      1.058951     13.287306
 1920.0   -176.588833     28.516029      1.070258     13.341139
 1930.0   -178.094150     28.954778      1.081642     13.393177
 1940.0   -179.573664     29.397223      1.093102     13.443365
