#Lambda        Dielectric Constant          Refractive Index
# [nm]        [Real]        [Imag]        [Real]        [Imag]
  120.0      0.540303      0.152488      0.742186      0.102723
  125.0      0.504381      0.160855      0.719013      0.111870
  130.0      0.457627      0.174453      0.688186      0.126760
  135.0      0.415292      0.187731      0.659975      0.142211
  140.0      0.363760      0.203016      0.624627      0.162513
  145.0      0.325480      0.227178      0.601000      0.189000
  150.0      0.283897      0.243808      0.573622      0.212521
  155.0      0.244336      0.263874      0.549548      0.240064
  160.0      0.204277      0.283912      0.526325      0.269757
  165.0      0.166399      0.301871      0.505487      0.298528
  170.0      0.129877      0.319502      0.487254      0.327905
  175.0      0.091391      0.336511      0.469120      0.358700
  180.0      0.055248      0.350007      0.452457      0.386668
  185.0      0.017612      0.360877      0.435305      0.414569
  190.0     -0.025372      0.371009      0.416277      0.445708
  195.0     -0.070403      0.380821      0.398021      0.478334
  200.0     -0.116150      0.389929      0.381260      0.511356
  205.0     -0.163721      0.397511      0.364765      0.544835
  210.0     -0.214965      0.403930      0.348230      0.579896
  215.0     -0.271941      0.410352      0.332040      0.618161
  220.0     -0.333833      0.418643      0.317641      0.659294
  225.0     -0.397746      0.431156      0.307223      0.701530
  230.0     -0.461991      0.448769      0.301585      0.743609
  235.0     -0.526893      0.469976      0.299254      0.785146
  240.0     -0.592810      0.493195      0.298685      0.825811
  245.0     -0.658811      0.517984      0.299453      0.865095
  250.0     -0.723323      0.544476      0.301690      0.902401
  255.0     -0.785049      0.572676      0.305439      0.937253
  260.0     -0.844209      0.601875      0.310220      0.969826
  265.0     -0.901535      0.631125      0.315377      1.000514
  270.0     -0.957720      0.659536      0.320296      1.029697
  275.0     -1.013046      0.686893      0.324804      1.057594
  280.0     -1.067537      0.713398      0.329003      1.084323
  285.0     -1.121211      0.739260      0.333000      1.110000
  290.0     -1.174158      0.764571      0.336848      1.134750
  295.0     -1.226743      0.788956      0.340382      1.158726
  300.0     -1.279404      0.811926      0.343382      1.182090
  305.0     -1.332575      0.832990      0.345629      1.205003
  310.0     -1.386669      0.851731      0.346934      1.227623
  315.0     -1.441921      0.868304      0.347360      1.250064
  320.0     -1.498479      0.883139      0.347085      1.272424
  325.0     -1.556492      0.896668      0.346288      1.294800
  330.0     -1.616106      0.909320      0.345151      1.317289
  335.0     -1.677415      0.921455      0.343827      1.339964
  340.0     -1.740181      0.933014      0.342324      1.362753
  345.0     -1.804050      0.943792      0.340600      1.385535
  350.0     -1.868669      0.953584      0.338610      1.408188
  355.0     -1.933684      0.962183      0.336312      1.430590
  360.0     -1.998742      0.969383      0.333662      1.452620
  365.0     -2.063739      0.975010      0.330619      1.474236
  370.0     -2.129273      0.978969      0.327148      1.495617
  375.0     -2.196063      0.981183      0.323217      1.516983
  380.0     -2.264828      0.981575      0.318792      1.538553
  385.0     -2.336287      0.980067      0.313842      1.560547
  390.0     -2.411159      0.976579      0.308332      1.583182
  395.0     -2.490159      0.971038      0.302231      1.606677
  400.0     -2.573629      0.963564      0.295572      1.631137
  405.0     -2.661236      0.954633      0.288511      1.656464
  410.0     -2.752582      0.944755      0.281213      1.682540
  415.0     -2.847267      0.934443      0.273845      1.709246
  420.0     -2.944890      0.924208      0.266574      1.736464
  425.0     -3.045051      0.914562      0.259565      1.764074
  430.0     -3.147352      0.906015      0.252985      1.791959
  435.0     -3.251391      0.899080      0.247000      1.820000
  440.0     -3.356846      0.894151      0.241738      1.848099
  445.0     -3.463698      0.891158      0.237169      1.876237
  450.0     -3.572007      0.889912      0.233225      1.904419
  455.0     -3.681831      0.890225      0.229837      1.932647
  460.0     -3.793229      0.891910      0.226936      1.960923
  465.0     -3.906260      0.894777      0.224455      1.989251
  470.0     -4.020983      0.898641      0.222323      2.017634
  475.0     -4.137457      0.903311      0.220473      2.046073
  480.0     -4.255739      0.908602      0.218837      2.074573
  485.0     -4.375890      0.914323      0.217344      2.103135
  490.0     -4.497957      0.920305      0.215933      2.131762
  495.0     -4.621889      0.926512      0.214587      2.160442
  500.0     -4.747590      0.932979      0.213313      2.189157
  505.0     -4.874961      0.939739      0.212117      2.217890
  510.0     -5.003905      0.946827      0.211006      2.246624
  515.0     -5.134322      0.954278      0.209988      2.275340
  520.0     -5.266116      0.962127      0.209068      2.304022
  525.0     -5.399188      0.970407      0.208255      2.332651
  530.0     -5.533439      0.979153      0.207554      2.361210
  535.0     -5.668772      0.988401      0.206973      2.389682
  540.0     -5.805089      0.998184      0.206519      2.418049
  545.0     -5.942291      1.008536      0.206199      2.446293
  550.0     -6.080280      1.019493      0.206019      2.474398
  555.0     -6.218972      1.031085      0.205985      2.502346
  560.0     -6.358374      1.043314      0.206094      2.530142
  565.0     -6.498539      1.056170      0.206342      2.557795
  570.0     -6.639517      1.069643      0.206720      2.585316
  575.0     -6.781360      1.083722      0.207224      2.612714
  580.0     -6.924120      1.098397      0.207846      2.640001
  585.0     -7.067846      1.113657      0.208581      2.667186
  590.0     -7.212592      1.129491      0.209422      2.694280
  595.0     -7.358408      1.145890      0.210364      2.721293
  600.0     -7.505345      1.162843      0.211399      2.748236
  605.0     -7.653455      1.180340      0.212522      2.775118
  610.0     -7.802789      1.198370      0.213726      2.801950
  615.0     -7.953399      1.216922      0.215006      2.828743
  620.0     -8.105336      1.235987      0.216355      2.855506
  625.0     -8.258651      1.255553      0.217766      2.882250
  630.0     -8.413396      1.275611      0.219234      2.908985
  635.0     -8.569622      1.296150      0.220753      2.935721
  640.0     -8.727370      1.317159      0.222316      2.962468
  645.0     -8.886613      1.338627      0.223920      2.989223
  650.0     -9.047300      1.360541      0.225565      3.015981
  655.0     -9.209376      1.382888      0.227249      3.042737
  660.0     -9.372789      1.405658      0.228969      3.069483
  665.0     -9.537486      1.428836      0.230725      3.096215
  670.0     -9.703412      1.452412      0.232514      3.122927
  675.0     -9.870517      1.476372      0.234335      3.149612
  680.0    -10.038745      1.500705      0.236187      3.176266
  685.0    -10.208045      1.525397      0.238068      3.202882
  690.0    -10.378363      1.550437      0.239976      3.229455
  695.0    -10.549646      1.575813      0.241909      3.255979
  700.0    -10.721841      1.601511      0.243867      3.282448
  705.0    -10.894894      1.627521      0.245847      3.308857
  710.0    -11.068754      1.653828      0.247847      3.335199
  715.0    -11.243366      1.680422      0.249867      3.361468
  720.0    -11.418677      1.707290      0.251905      3.387660
  725.0    -11.594635      1.734419      0.253958      3.413768
  730.0    -11.771187      1.761797      0.256026      3.439787
  735.0    -11.948278      1.789412      0.258107      3.465711
  740.0    -12.125857      1.817252      0.260198      3.491533
  745.0    -12.303870      1.845304      0.262299      3.517249
  750.0    -12.482264      1.873555      0.264408      3.542852
  755.0    -12.660991      1.901996      0.266524      3.568338
  760.0    -12.840057      1.930622      0.268645      3.593706
  765.0    -13.019498      1.959436      0.270771      3.618962
  770.0    -13.199348      1.988441      0.272903      3.644108
  775.0    -13.379645      2.017638      0.275041      3.669149
  780.0    -13.560422      2.047031      0.277183      3.694090
  785.0    -13.741717      2.076621      0.279331      3.718933
  790.0    -13.923564      2.106412      0.281484      3.743683
  795.0    -14.105999      2.136405      0.283641      3.768344
  800.0    -14.289058      2.166602      0.285803      3.792920
  805.0    -14.472776      2.197006      0.287969      3.817415
  810.0    -14.657190      2.227620      0.290140      3.841832
  815.0    -14.842335      2.258445      0.292315      3.866177
  820.0    -15.028246      2.289485      0.294494      3.890452
  825.0    -15.214959      2.320740      0.296677      3.914663
  830.0    -15.402509      2.352215      0.298863      3.938812
  835.0    -15.590934      2.383911      0.301054      3.962904
  840.0    -15.780267      2.415830      0.303247      3.986943
  845.0    -15.970545      2.447975      0.305445      4.010933
  850.0    -16.161803      2.480348      0.307645      4.034877
  855.0    -16.354077      2.512952      0.309849      4.058781
  860.0    -16.547403      2.545788      0.312055      4.082647
  865.0    -16.741816      2.578860      0.314265      4.106480
  870.0    -16.937351      2.612170      0.316477      4.130284
  875.0    -17.134046      2.645719      0.318691      4.154063
  880.0    -17.331934      2.679511      0.320908      4.177820
  885.0    -17.531053      2.713547      0.323127      4.201560
  890.0    -17.731437      2.747830      0.325349      4.225287
  895.0    -17.933122      2.782363      0.327572      4.249005
  900.0    -18.136144      2.817148      0.329797      4.272718
  905.0    -18.340538      2.852186      0.332024      4.296429
  910.0    -18.546340      2.887481      0.334253      4.320143
  915.0    -18.753586      2.923035      0.336483      4.343864
  920.0    -18.962311      2.958849      0.338714      4.367595
  925.0    -19.172522      2.994924      0.340947      4.391340
  930.0    -19.384181      3.031250      0.343180      4.415095
  935.0    -19.597247      3.067821      0.345413      4.438859
  940.0    -19.811678      3.104627      0.347647      4.462630
  945.0    -20.027432      3.141662      0.349880      4.486407
  950.0    -20.244466      3.178917      0.352112      4.510188
  955.0    -20.462740      3.216384      0.354343      4.533970
  960.0    -20.682212      3.254055      0.356573      4.557751
  965.0    -20.902839      3.291922      0.358801      4.581531
  970.0    -21.124580      3.329977      0.361026      4.605307
  975.0    -21.347393      3.368212      0.363250      4.629077
  980.0    -21.571236      3.406620      0.365470      4.652839
  985.0    -21.796068      3.445191      0.367687      4.676592
  990.0    -22.021846      3.483918      0.369900      4.700334
  995.0    -22.248529      3.522793      0.372109      4.724062
 1000.0    -22.476075      3.561808      0.374313      4.747775
 1005.0    -22.704441      3.600955      0.376513      4.771471
 1010.0    -22.933588      3.640226      0.378708      4.795148
 1015.0    -23.163471      3.679613      0.380897      4.818804
 1020.0    -23.394050      3.719108      0.383081      4.842438
 1025.0    -23.625283      3.758702      0.385258      4.866048
 1030.0    -23.857128      3.798389      0.387428      4.889631
 1035.0    -24.089543      3.838159      0.389592      4.913185
 1040.0    -24.322487      3.878005      0.391748      4.936710
 1045.0    -24.555917      3.917919      0.393896      4.960203
 1050.0    -24.789792      3.957893      0.396037      4.983662
 1055.0    -25.024069      3.997919      0.398169      5.007086
 1060.0    -25.258708      4.037988      0.400292      5.030472
 1065.0    -25.493666      4.078093      0.402405      5.053818
 1070.0    -25.728901      4.118226      0.404510      5.077123
 1075.0    -25.964372      4.158379      0.406604      5.100385
 1080.0    -26.200037      4.198543      0.408688      5.123603
 1085.0    -26.435854      4.238712      0.410762      5.146773
 1090.0    -26.671781      4.278875      0.412824      5.169894
 1095.0    -26.907776      4.319027      0.414875      5.192965
 1100.0    -27.143798      4.359158      0.416914      5.215984
 1105.0    -27.379804      4.399261      0.418941      5.238948
 1110.0    -27.615753      4.439328      0.420956      5.261856
 1115.0    -27.851604      4.479350      0.422957      5.284706
 1120.0    -28.087313      4.519320      0.424946      5.307496
 1125.0    -28.322840      4.559229      0.426921      5.330225
 1130.0    -28.558143      4.599070      0.428882      5.352889
 1135.0    -28.793179      4.638835      0.430828      5.375488
 1140.0    -29.027907      4.678515      0.432760      5.398020
 1145.0    -29.262286      4.718103      0.434677      5.420483
 1150.0    -29.496272      4.757590      0.436578      5.442874
 1155.0    -29.729825      4.796969      0.438464      5.465193
 1160.0    -29.962903      4.836231      0.440333      5.487436
 1165.0    -30.195464      4.875369      0.442186      5.509603
 1170.0    -30.427466      4.914374      0.444022      5.531691
 1175.0    -30.658867      4.953239      0.445841      5.553699
 1180.0    -30.889625      4.991955      0.447642      5.575625
 1185.0    -31.119708      5.030516      0.449425      5.597467
 1190.0    -31.349150      5.068923      0.451190      5.619226
 1195.0    -31.578016      5.107180      0.452938      5.640907
 1200.0    -31.806371      5.145292      0.454667      5.662511
 1205.0    -32.034279      5.183265      0.456380      5.684042
 1210.0    -32.261804      5.221102      0.458075      5.705502
 1215.0    -32.489013      5.258810      0.459753      5.726895
 1220.0    -32.715969      5.296392      0.461414      5.748223
 1225.0    -32.942738      5.333854      0.463059      5.769490
 1230.0    -33.169384      5.371200      0.464687      5.790698
 1235.0    -33.395971      5.408435      0.466298      5.811850
 1240.0    -33.622565      5.445565      0.467894      5.832950
 1245.0    -33.849231      5.482593      0.469473      5.853999
 1250.0    -34.076033      5.519525      0.471037      5.875002
 1255.0    -34.303035      5.556365      0.472585      5.895961
 1260.0    -34.530304      5.593119      0.474117      5.916879
 1265.0    -34.757903      5.629791      0.475634      5.937759
 1270.0    -34.985897      5.666386      0.477136      5.958603
 1275.0    -35.214350      5.702908      0.478623      5.979416
 1280.0    -35.443329      5.739364      0.480096      6.000199
 1285.0    -35.672897      5.775757      0.481554      6.020956
 1290.0    -35.903120      5.812092      0.482997      6.041690
 1295.0    -36.134061      5.848375      0.484426      6.062403
 1300.0    -36.365786      5.884609      0.485841      6.083099
 1305.0    -36.598360      5.920800      0.487242      6.103780
 1310.0    -36.831847      5.956953      0.488630      6.124450
 1315.0    -37.066312      5.993073      0.490004      6.145111
 1320.0    -37.301820      6.029164      0.491364      6.165766
 1325.0    -37.538435      6.065230      0.492712      6.186418
 1330.0    -37.776223      6.101278      0.494046      6.207071
 1335.0    -38.015248      6.137312      0.495368      6.227727
 1340.0    -38.255575      6.173337      0.496677      6.248389
 1345.0    -38.497268      6.209356      0.497973      6.269060
 1350.0    -38.740393      6.245377      0.499257      6.289743
 1355.0    -38.985014      6.281402      0.500529      6.310440
 1360.0    -39.231195      6.317437      0.501790      6.331156
 1365.0    -39.479003      6.353487      0.503038      6.351892
 1370.0    -39.728501      6.389557      0.504275      6.372652
 1375.0    -39.979754      6.425651      0.505500      6.393439
 1380.0    -40.232827      6.461775      0.506714      6.414255
 1385.0    -40.487784      6.497933      0.507917      6.435104
 1390.0    -40.744692      6.534129      0.509109      6.455988
 1395.0    -41.003613      6.570370      0.510291      6.476911
 1400.0    -41.264614      6.606659      0.511462      6.497875
 1405.0    -41.527758      6.643001      0.512622      6.518884
 1410.0    -41.793110      6.679402      0.513773      6.539939
 1415.0    -42.060736      6.715866      0.514913      6.561045
 1420.0    -42.330701      6.752398      0.516044      6.582204
 1425.0    -42.603067      6.789003      0.517164      6.603419
 1430.0    -42.877902      6.825685      0.518276      6.624694
 1435.0    -43.155269      6.862450      0.519378      6.646030
 1440.0    -43.435232      6.899302      0.520471      6.667431
 1445.0    -43.717858      6.936246      0.521555      6.688899
 1450.0    -44.003210      6.973287      0.522630      6.710439
 1455.0    -44.291354      7.010430      0.523697      6.732052
 1460.0    -44.582354      7.047680      0.524755      6.753742
 1465.0    -44.876275      7.085040      0.525806      6.775512
 1470.0    -45.173181      7.122518      0.526848      6.797364
 1475.0    -45.473138      7.160116      0.527882      6.819302
 1480.0    -45.776210      7.197840      0.528908      6.841328
 1485.0    -46.082462      7.235695      0.529927      6.863445
 1490.0    -46.391958      7.273686      0.530939      6.885657
 1495.0    -46.704764      7.311817      0.531943      6.907966
 1500.0    -47.020945      7.350093      0.532940      6.930375
 1505.0    -47.340564      7.388519      0.533931      6.952888
 1510.0    -47.663687      7.427101      0.534915      6.975506
 1515.0    -47.990379      7.465842      0.535892      6.998234
 1520.0    -48.320703      7.504747      0.536863      7.021073
 1525.0    -48.654726      7.543822      0.537828      7.044028
 1530.0    -48.992512      7.583072      0.538787      7.067100
 1535.0    -49.334125      7.622500      0.539740      7.090293
 1540.0    -49.679631      7.662112      0.540688      7.113610
 1545.0    -50.029093      7.701913      0.541630      7.137053
 1550.0    -50.382578      7.741908      0.542567      7.160626
 1555.0    -50.740149      7.782101      0.543499      7.184332
 1560.0    -51.101871      7.822497      0.544426      7.208173
 1565.0    -51.467810      7.863101      0.545349      7.232152
 1570.0    -51.838029      7.903919      0.546266      7.256273
 1575.0    -52.212595      7.944954      0.547180      7.280539
 1580.0    -52.591570      7.986211      0.548089      7.304951
 1585.0    -52.975021      8.027696      0.548995      7.329514
 1590.0    -53.363011      8.069413      0.549896      7.354230
 1595.0    -53.755607      8.111367      0.550794      7.379102
 1600.0    -54.152872      8.153563      0.551688      7.404133
 1605.0    -54.554871      8.196006      0.552579      7.429326
 1610.0    -54.961669      8.238700      0.553467      7.454684
 1615.0    -55.373330      8.281651      0.554352      7.480210
 1620.0    -55.789920      8.324863      0.555234      7.505907
 1625.0    -56.211504      8.368341      0.556114      7.531777
 1630.0    -56.638146      8.412090      0.556991      7.557824
 1635.0    -57.069910      8.456114      0.557866      7.584051
 1640.0    -57.506862      8.500419      0.558739      7.610460
 1645.0    -57.949066      8.545010      0.559610      7.637055
 1650.0    -58.396587      8.589890      0.560479      7.663838
 1655.0    -58.849489      8.635066      0.561347      7.690813
 1660.0    -59.307806      8.680539      0.562213      7.717980
 1665.0    -59.771529      8.726309      0.563078      7.745341
 1670.0    -60.240650      8.772376      0.563942      7.772893
 1675.0    -60.715157      8.818738      0.564804      7.800637
 1680.0    -61.195042      8.865395      0.565664      7.828572
 1685.0    -61.680295      8.912346      0.566523      7.856698
 1690.0    -62.170906      8.959591      0.567381      7.885015
 1695.0    -62.666865      9.007129      0.568238      7.913522
 1700.0    -63.168162      9.054959      0.569092      7.942218
 1705.0    -63.674787      9.103082      0.569946      7.971104
 1710.0    -64.186731      9.151495      0.570798      8.000178
 1715.0    -64.703984      9.200198      0.571649      8.029441
 1720.0    -65.226535      9.249191      0.572498      8.058892
 1725.0    -65.754376      9.298473      0.573346      8.088530
 1730.0    -66.287496      9.348043      0.574192      8.118355
 1735.0    -66.825885      9.397901      0.575037      8.148368
 1740.0    -67.369534      9.448046      0.575881      8.178566
 1745.0    -67.918433      9.498477      0.576723      8.208950
 1750.0    -68.472572      9.549194      0.577564      8.239520
 1755.0    -69.031941      9.600196      0.578403      8.270275
 1760.0    -69.596530      9.651482      0.579241      8.301214
 1765.0    -70.166330      9.703052      0.580077      8.332338
 1770.0    -70.741331      9.754904      0.580912      8.363645
 1775.0    -71.321523      9.807039      0.581746      8.395136
 1780.0    -71.906895      9.859456      0.582578      8.426809
 1785.0    -72.497439      9.912154      0.583409      8.458665
 1790.0    -73.093145      9.965132      0.584239      8.490703
 1795.0    -73.694002     10.018389      0.585067      8.522923
 1800.0    -74.300000     10.071926      0.585893      8.555324
 1805.0    -74.911131     10.125741      0.586718      8.587906
 1810.0    -75.527384     10.179833      0.587542      8.620669
 1815.0    -76.148749     10.234202      0.588365      8.653611
 1820.0    -76.775217     10.288848      0.589186      8.686733
 1825.0    -77.406778     10.343769      0.590005      8.720034
 1830.0    -78.043421     10.398966      0.590823      8.753514
 1835.0    -78.685138     10.454436      0.591640      8.787172
 1840.0    -79.331917     10.510180      0.592455      8.821008
 1845.0    -79.983750     10.566198      0.593269      8.855022
 1850.0    -80.640627     10.622487      0.594082      8.889212
 1855.0    -81.302538     10.679048      0.594893      8.923579
 1860.0    -81.969472     10.735880      0.595703      8.958123
 1865.0    -82.641421     10.792982      0.596511      8.992842
 1870.0    -83.318374     10.850354      0.597318      9.027737
 1875.0    -84.000321     10.907995      0.598124      9.062806
 1880.0    -84.687253     10.965904      0.598928      9.098050
 1885.0    -85.379160     11.024081      0.599731      9.133468
 1890.0    -86.076032     11.082525      0.600532      9.169060
 1895.0    -86.777859     11.141235      0.601332      9.204826
 1900.0    -87.484632     11.200210      0.602130      9.240764
 1905.0    -88.196340     11.259451      0.602928      9.276874
 1910.0    -88.912974     11.318955      0.603723      9.313157
 1915.0    -89.634524     11.378724      0.604518      9.349611
 1920.0    -90.360980     11.438755      0.605311      9.386236
 1925.0    -91.092332     11.499049      0.606102      9.423032
 1930.0    -91.828571     11.559604      0.606893      9.459999
 1935.0    -92.569687     11.620420      0.607681      9.497135
 1940.0    -93.315669     11.681496      0.608469      9.534441
 1945.0    -94.066508     11.742832      0.609255      9.571916
 1950.0    -94.822195     11.804427      0.610039      9.609559
 1955.0    -95.582719     11.866280      0.610823      9.647371
 1960.0    -96.348070     11.928391      0.611605      9.685351
 1965.0    -97.118240     11.990758      0.612385      9.723498
 1970.0    -97.893217     12.053382      0.613164      9.761812
 1975.0    -98.672992     12.116262      0.613942      9.800293
 1980.0    -99.457556     12.179396      0.614718      9.838940
 1985.0   -100.246898     12.242785      0.615493      9.877752
 1990.0   -101.041008     12.306427      0.616267      9.916730
 1995.0   -101.839878     12.370322      0.617039      9.955873
 2000.0   -102.643496     12.434469      0.617810      9.995180
 2005.0   -103.451854     12.498868      0.618579     10.034651
 2010.0   -104.264941     12.563518      0.619347     10.074286
 2015.0   -105.082747     12.628418      0.620114     10.114084
 2020.0   -105.905264     12.693568      0.620879     10.154045
 2025.0   -106.732480     12.758967      0.621643     10.194169
 2030.0   -107.564386     12.824614      0.622405     10.234454
 2035.0   -108.400973     12.890508      0.623166     10.274901
 2040.0   -109.242229     12.956649      0.623926     10.315509
 2045.0   -110.088147     13.023037      0.624685     10.356277
 2050.0   -110.938715     13.089670      0.625442     10.397206
 2055.0   -111.793925     13.156548      0.626197     10.438295
 2060.0   -112.653765     13.223670      0.626951     10.479543
 2065.0   -113.518227     13.291036      0.627704     10.520950
 2070.0   -114.387300     13.358645      0.628456     10.562516
 2075.0   -115.260976     13.426496      0.629206     10.604240
 2080.0   -116.139242     13.494588      0.629955     10.646122
 2085.0   -117.022091     13.562922      0.630702     10.688161
 2090.0   -117.909513     13.631495      0.631448     10.730357
 2095.0   -118.801496     13.700309      0.632193     10.772710
 2100.0   -119.698033     13.769361      0.632936     10.815218
 2105.0   -120.599112     13.838651      0.633678     10.857883
 2110.0   -121.504724     13.908179      0.634418     10.900702
 2115.0   -122.414859     13.977943      0.635157     10.943677
 2120.0   -123.329507     14.047944      0.635895     10.986805
 2125.0   -124.248659     14.118181      0.636632     11.030088
 2130.0   -125.172305     14.188652      0.637367     11.073524
 2135.0   -126.100434     14.259358      0.638100     11.117114
 2140.0   -127.033038     14.330297      0.638833     11.160856
 2145.0   -127.970106     14.401469      0.639564     11.204751
 2150.0   -128.911628     14.472873      0.640293     11.248797
 2155.0   -129.857595     14.544509      0.641022     11.292995
 2160.0   -130.807996     14.616376      0.641749     11.337344
 2165.0   -131.762823     14.688473      0.642474     11.381843
 2170.0   -132.722064     14.760799      0.643198     11.426493
 2175.0   -133.685711     14.833354      0.643921     11.471293
 2180.0   -134.653753     14.906138      0.644642     11.516242
 2185.0   -135.626182     14.979149      0.645363     11.561340
 2190.0   -136.602985     15.052386      0.646081     11.606586
 2195.0   -137.584155     15.125851      0.646799     11.651980
 2200.0   -138.569681     15.199540      0.647515     11.697523
 2205.0   -139.559554     15.273455      0.648229     11.743212
 2210.0   -140.553763     15.347593      0.648943     11.789049
 2215.0   -141.552298     15.421955      0.649655     11.835031
 2220.0   -142.555151     15.496540      0.650365     11.881160
 2225.0   -143.562311     15.571348      0.651074     11.927435
 2230.0   -144.573768     15.646376      0.651782     11.973854
 2235.0   -145.589512     15.721626      0.652489     12.020419
 2240.0   -146.609535     15.797096      0.653194     12.067127
 2245.0   -147.633825     15.872785      0.653898     12.113980
 2250.0   -148.662373     15.948693      0.654600     12.160976
 2255.0   -149.695169     16.024820      0.655301     12.208115
 2260.0   -150.732203     16.101164      0.656001     12.255397
 2265.0   -151.773466     16.177724      0.656700     12.302821
 2270.0   -152.818948     16.254501      0.657397     12.350387
 2275.0   -153.868639     16.331494      0.658093     12.398095
 2280.0   -154.922528     16.408701      0.658787     12.445943
 2285.0   -155.980607     16.486122      0.659480     12.493932
 2290.0   -157.042866     16.563757      0.660172     12.542061
 2295.0   -158.109294     16.641605      0.660862     12.590330
 2300.0   -159.179882     16.719665      0.661551     12.638738
 2305.0   -160.254620     16.797936      0.662239     12.687285
 2310.0   -161.333498     16.876419      0.662925     12.735970
 2315.0   -162.416506     16.955111      0.663610     12.784793
 2320.0   -163.503635     17.034013      0.664294     12.833755
 2325.0   -164.594874     17.113124      0.664976     12.882853
 2330.0   -165.690215     17.192443      0.665657     12.932088
 2335.0   -166.789646     17.271969      0.666337     12.981459
 2340.0   -167.893159     17.351703      0.667015     13.030967
 2345.0   -169.000743     17.431642      0.667692     13.080610
 2350.0   -170.112389     17.511787      0.668368     13.130388
 2355.0   -171.228086     17.592137      0.669042     13.180301
 2360.0   -172.347826     17.672691      0.669715     13.230348
 2365.0   -173.471597     17.753448      0.670387     13.280528
 2370.0   -174.599391     17.834408      0.671057     13.330843
 2375.0   -175.731198     17.915571      0.671726     13.381290
 2380.0   -176.867007     17.996935      0.672393     13.431870
 2385.0   -178.006809     18.078499      0.673060     13.482582
 2390.0   -179.150594     18.160264      0.673725     13.533426
 2395.0   -180.298352     18.242228      0.674388     13.584401
 2400.0   -181.450074     18.324392      0.675051     13.635507
 2405.0   -182.605749     18.406753      0.675712     13.686744
 2410.0   -183.765368     18.489312      0.676371     13.738111
 2415.0   -184.928921     18.572067      0.677030     13.789607
 2420.0   -186.096398     18.655019      0.677687     13.841233
 2425.0   -187.267789     18.738166      0.678342     13.892987
 2430.0   -188.443085     18.821508      0.678997     13.944870
 2435.0   -189.622275     18.905044      0.679650     13.996881
 2440.0   -190.805351     18.988774      0.680301     14.049019
 2445.0   -191.992301     19.072696      0.680952     14.101284
 2450.0   -193.183117     19.156811      0.681601     14.153677
 2455.0   -194.377787     19.241117      0.682248     14.206195
 2460.0   -195.576304     19.325614      0.682895     14.258840
 2465.0   -196.778656     19.410301      0.683540     14.311609
 2470.0   -197.984834     19.495177      0.684184     14.364504
 2475.0   -199.194828     19.580242      0.684826     14.417524
 2480.0   -200.408629     19.665496      0.685467     14.470668
 2485.0   -201.626226     19.750937      0.686107     14.523935
 2490.0   -202.847609     19.836564      0.686745     14.577326
 2495.0   -204.072770     19.922378      0.687383     14.630840
 2500.0   -205.301697     20.008377      0.688019     14.684476
 2505.0   -206.534382     20.094561      0.688653     14.738235
 2510.0   -207.770814     20.180929      0.689286     14.792115
 2515.0   -209.010983     20.267481      0.689918     14.846116
 2520.0   -210.254880     20.354215      0.690549     14.900239
 2525.0   -211.502495     20.441131      0.691178     14.954481
 2530.0   -212.753819     20.528229      0.691806     15.008844
 2535.0   -214.008840     20.615508      0.692433     15.063327
 2540.0   -215.267550     20.702967      0.693058     15.117928
 2545.0   -216.529938     20.790605      0.693682     15.172648
 2550.0   -217.795996     20.878422      0.694305     15.227487
 2555.0   -219.065712     20.966417      0.694926     15.282443
 2560.0   -220.339077     21.054590      0.695546     15.337517
 2565.0   -221.616082     21.142939      0.696165     15.392709
 2570.0   -222.896716     21.231464      0.696783     15.448016
 2575.0   -224.180970     21.320165      0.697399     15.503440
 2580.0   -225.468834     21.409041      0.698014     15.558980
 2585.0   -226.760298     21.498091      0.698627     15.614635
 2590.0   -228.055352     21.587314      0.699239     15.670405
 2595.0   -229.353987     21.676710      0.699850     15.726290
 2600.0   -230.656192     21.766278      0.700460     15.782289
 2605.0   -231.961958     21.856017      0.701068     15.838402
 2610.0   -233.271274     21.945928      0.701675     15.894627
 2615.0   -234.584132     22.036008      0.702281     15.950966
 2620.0   -235.900522     22.126258      0.702886     16.007417
 2625.0   -237.220433     22.216676      0.703489     16.063981
 2630.0   -238.543855     22.307263      0.704091     16.120656
 2635.0   -239.870779     22.398017      0.704691     16.177442
 2640.0   -241.201196     22.488938      0.705290     16.234339
 2645.0   -242.535094     22.580024      0.705888     16.291346
 2650.0   -243.872466     22.671277      0.706485     16.348463
 2655.0   -245.213299     22.762694      0.707080     16.405690
 2660.0   -246.557585     22.854275      0.707674     16.463026
 2665.0   -247.905315     22.946019      0.708267     16.520470
 2670.0   -249.256477     23.037927      0.708859     16.578023
 2675.0   -250.611063     23.129996      0.709449     16.635684
 2680.0   -251.969062     23.222227      0.710038     16.693452
 2685.0   -253.330465     23.314618      0.710625     16.751327
 2690.0   -254.695261     23.407170      0.711212     16.809308
 2695.0   -256.063442     23.499881      0.711797     16.867396
 2700.0   -257.434997     23.592751      0.712380     16.925590
 2705.0   -258.809916     23.685779      0.712963     16.983889
 2710.0   -260.188190     23.778964      0.713544     17.042292
 2715.0   -261.569809     23.872306      0.714124     17.100801
 2720.0   -262.954762     23.965804      0.714702     17.159413
 2725.0   -264.343041     24.059457      0.715280     17.218129
 2730.0   -265.734634     24.153265      0.715856     17.276948
 2735.0   -267.129534     24.247228      0.716431     17.335870
 2740.0   -268.527729     24.341343      0.717004     17.394895
 2745.0   -269.929209     24.435612      0.717576     17.454021
 2750.0   -271.333966     24.530032      0.718147     17.513249
 2755.0   -272.741989     24.624604      0.718717     17.572579
 2760.0   -274.153268     24.719326      0.719285     17.632008
 2765.0   -275.567794     24.814199      0.719852     17.691539
 2770.0   -276.985557     24.909221      0.720418     17.751169
 2775.0   -278.406546     25.004392      0.720982     17.810898
 2780.0   -279.830753     25.099710      0.721545     17.870727
 2785.0   -281.258166     25.195177      0.722107     17.930654
 2790.0   -282.688777     25.290789      0.722668     17.990679
 2795.0   -284.122576     25.386548      0.723227     18.050802
 2800.0   -285.559553     25.482453      0.723785     18.111023
 2805.0   -286.999697     25.578502      0.724342     18.171340
 2810.0   -288.443000     25.674695      0.724897     18.231754
 2815.0   -289.889451     25.771031      0.725452     18.292264
 2820.0   -291.339041     25.867510      0.726005     18.352870
 2825.0   -292.791759     25.964132      0.726556     18.413571
 2830.0   -294.247596     26.060894      0.727107     18.474367
 2835.0   -295.706542     26.157797      0.727656     18.535257
 2840.0   -297.168588     26.254841      0.728204     18.596242
 2845.0   -298.633723     26.352023      0.728750     18.657319
 2850.0   -300.101937     26.449345      0.729296     18.718490
 2855.0   -301.573221     26.546804      0.729840     18.779754
 2860.0   -303.047566     26.644401      0.730383     18.841110
 2865.0   -304.524960     26.742134      0.730924     18.902558
 2870.0   -306.005395     26.840004      0.731464     18.964098
 2875.0   -307.488860     26.938009      0.732003     19.025728
 2880.0   -308.975346     27.036148      0.732541     19.087450
 2885.0   -310.464842     27.134422      0.733078     19.149261
 2890.0   -311.957340     27.232829      0.733613     19.211162
 2895.0   -313.452829     27.331369      0.734147     19.273153
 2900.0   -314.951299     27.430040      0.734679     19.335233
 2905.0   -316.452741     27.528843      0.735211     19.397401
 2910.0   -317.957145     27.627777      0.735741     19.459657
 2915.0   -319.464500     27.726841      0.736270     19.522001
 2920.0   -320.974798     27.826034      0.736797     19.584433
 2925.0   -322.488028     27.925356      0.737324     19.646951
 2930.0   -324.004180     28.024805      0.737849     19.709556
 2935.0   -325.523245     28.124383      0.738373     19.772246
 2940.0   -327.045213     28.224086      0.738895     19.835023
 2945.0   -328.570074     28.323916      0.739417     19.897884
 2950.0   -330.097819     28.423871      0.739937     19.960830
 2955.0   -331.628436     28.523951      0.740456     20.023861
 2960.0   -333.161917     28.624155      0.740973     20.086976
 2965.0   -334.698252     28.724482      0.741489     20.150174
 2970.0   -336.237431     28.824932      0.742004     20.213455
 2975.0   -337.779444     28.925504      0.742518     20.276819
 2980.0   -339.324281     29.026197      0.743031     20.340265
 2985.0   -340.871932     29.127011      0.743542     20.403793
 2990.0   -342.422388     29.227945      0.744052     20.467403
 2995.0   -343.975639     29.328998      0.744561     20.531093
 3000.0   -345.531675     29.430170      0.745068     20.594864
 3050.0   -361.243050     30.448269      0.750075     21.236914
 3100.0   -377.222121     31.477499      0.754958     21.886561
 3150.0   -393.459071     32.517194      0.759716     22.543385
 3200.0   -409.944077     33.566684      0.764352     23.206968
 3250.0   -426.667321     34.625303      0.768866     23.876889
 3300.0   -443.618982     35.692382      0.773258     24.552729
 3350.0   -460.789241     36.767253      0.777528     25.234068
 3400.0   -478.168276     37.849249      0.781679     25.920489
 3450.0   -495.746269     38.937701      0.785710     26.611569
 3500.0   -513.513399     40.031942      0.789622     27.306892
 3550.0   -531.459846     41.131303      0.793415     28.006036
 3600.0   -549.575790     42.235118      0.797091     28.708582
 3650.0   -567.851412     43.342717      0.800650     29.414112
 3700.0   -586.276890     44.453433      0.804092     30.122205
 3750.0   -604.842405     45.566598      0.807419     30.832442
 3800.0   -623.538138     46.681545      0.810631     31.544404
 3850.0   -642.354267     47.797605      0.813728     32.257671
 3900.0   -661.280973     48.914110      0.816712     32.971823
 3950.0   -680.308436     50.030392      0.819582     33.686442
 4000.0   -699.426836     51.145784      0.822340     34.401108
 4050.0   -718.626353     52.259618      0.824987     35.115401
 4100.0   -737.897166     53.371226      0.827522     35.828902
 4150.0   -757.229457     54.479939      0.829947     36.541191
 4200.0   -776.613404     55.585090      0.832263     37.251850
 4250.0   -796.039188     56.686011      0.834469     37.960458
 4300.0   -815.496988     57.782035      0.836567     38.666596
 4350.0   -834.976985     58.872492      0.838557     39.369845
 4400.0   -854.469359     59.956716      0.840440     40.069785
 4450.0   -873.964289     61.034038      0.842216     40.765997
 4500.0   -893.451955     62.103791      0.843887     41.458061
 4550.0   -912.922539     63.165306      0.845453     42.145558
 4600.0   -932.366218     64.217916      0.846914     42.828068
 4650.0   -951.773174     65.260953      0.848272     43.505173
 4700.0   -971.133587     66.293748      0.849526     44.176452
 4750.0   -990.437636     67.315635      0.850678     44.841485
 4800.0  -1009.675501     68.325944      0.851728     45.499855
 4850.0  -1028.837363     69.324009      0.852677     46.151141
 4900.0  -1047.913400     70.309161      0.853526     46.794923
 4950.0  -1066.893794     71.280732      0.854274     47.430782
 5000.0  -1085.768725     72.238054      0.854924     48.058300
 5050.0  -1104.528371     73.180460      0.855475     48.677055
 5100.0  -1123.162914     74.107282      0.855928     49.286630
 5150.0  -1141.662533     75.017851      0.856285     49.886604
 5200.0  -1160.017407     75.911500      0.856544     50.476558
 5250.0  -1178.217718     76.787561      0.856708     51.056073
 5300.0  -1196.253645     77.645366      0.856777     51.624728
 5350.0  -1214.115368     78.484247      0.856751     52.182106
 5400.0  -1231.793067     79.303536      0.856631     52.727785
 5450.0  -1249.276922     80.102565      0.856418     53.261347
 5500.0  -1266.557113     80.880667      0.856113     53.782373
 5550.0  -1283.623819     81.637173      0.855716     54.290442
 5600.0  -1300.467222     82.371416      0.855228     54.785136
 5650.0  -1317.077500     83.082727      0.854649     55.266034
 5700.0  -1333.444834     83.770439      0.853980     55.732718
 5750.0  -1349.559403     84.433884      0.853222     56.184768
 5800.0  -1365.411389     85.072393      0.852375     56.621765
 5850.0  -1380.990970     85.685300      0.851441     57.043289
 5900.0  -1396.288327     86.271935      0.850419     57.448920
 5950.0  -1411.293639     86.831632      0.849311     57.838240
 6000.0  -1425.997087     87.363722      0.848117     58.210828
 6050.0  -1440.388851     87.867537      0.846838     58.566266
 6100.0  -1454.459110     88.342410      0.845474     58.904133
 6150.0  -1468.198044     88.787673      0.844026     59.224011
 6200.0  -1481.595834     89.202657      0.842495     59.525480
 6250.0  -1494.642660     89.586694      0.840881     59.808121
 6300.0  -1507.328700     89.939118      0.839186     60.071513
 6350.0  -1519.644136     90.259259      0.837409     60.315238
 6400.0  -1531.579148     90.546451      0.835552     60.538877
 6450.0  -1543.123915     90.800024      0.833614     60.742009
 6500.0  -1554.268617     91.019312      0.831598     60.924215
 6550.0  -1565.003434     91.203646      0.829502     61.085076
 6600.0  -1575.318546     91.352358      0.827329     61.224172
 6650.0  -1585.204134     91.464781      0.825079     61.341084
 6700.0  -1594.650377     91.540246      0.822752     61.435393
 6750.0  -1603.647455     91.578086      0.820349     61.506679
 6800.0  -1612.185548     91.577633      0.817871     61.554522
 6850.0  -1620.254836     91.538219      0.815318     61.578503
 6900.0  -1627.845499     91.459175      0.812691     61.578203
 6950.0  -1634.947717     91.339835      0.809990     61.553202
 7000.0  -1641.551670     91.179529      0.807218     61.503081
 7050.0  -1647.647537     90.977591      0.804373     61.427420
 7100.0  -1653.225500     90.733352      0.801457     61.325800
 7150.0  -1658.275738     90.446145      0.798470     61.197802
 7200.0  -1662.788430     90.115301      0.795413     61.043005
 7250.0  -1666.753757     89.740153      0.792287     60.860991
 7300.0  -1670.161899     89.320032      0.789092     60.651339
 7350.0  -1673.003036     88.854271      0.785829     60.413632
 7400.0  -1675.267347     88.342202      0.782499     60.147448
 7450.0  -1676.945013     87.783157      0.779102     59.852369
 7500.0  -1678.026214     87.176467      0.775639     59.527976
 7550.0  -1678.501129     86.521466      0.772111     59.173848
 7600.0  -1678.359939     85.817486      0.768518     58.789566
 7650.0  -1677.592823     85.063857      0.764861     58.374712
 7700.0  -1676.189962     84.259913      0.761140     57.928864
 7750.0  -1674.141536     83.404986      0.757357     57.451605
 7800.0  -1671.437723     82.498407      0.753512     56.942514
 7850.0  -1668.068705     81.539508      0.749605     56.401172
 7900.0  -1664.024662     80.527623      0.745638     55.827160
 7950.0  -1659.295773     79.462082      0.741611     55.220058
 8000.0  -1653.872218     78.342219      0.737524     54.579447
 8050.0  -1647.744178     77.167364      0.733379     53.904907
 8100.0  -1640.901831     75.936851      0.729175     53.196019
 8150.0  -1633.335359     74.650010      0.724914     52.452363
 8200.0  -1625.034941     73.306176      0.720596     51.673520
 8250.0  -1615.990758     71.904678      0.716223     50.859070
 8300.0  -1606.192988     70.444850      0.711793     50.008595
 8350.0  -1595.631813     68.926024      0.707309     49.121674
 8400.0  -1584.297411     67.347532      0.702771     48.197888
 8450.0  -1572.179964     65.708705      0.698180     47.236818
 8500.0  -1559.269650     64.008876      0.693535     46.238044
 8550.0  -1545.556651     62.247377      0.688839     45.201146
 8600.0  -1531.031145     60.423540      0.684091     44.125706
 8650.0  -1515.683314     58.536698      0.679292     43.011304
 8700.0  -1499.503336     56.586181      0.674443     41.857520
 8750.0  -1482.481392     54.571323      0.669545     40.663935
 8800.0  -1464.607662     52.491456      0.664598     39.430130
 8850.0  -1445.872326     50.345911      0.659603     38.155684
