#Lambda        Dielectric Constant          Refractive Index
# [nm]        [Real]        [Imag]        [Real]        [Imag]
   10.0      0.927800      0.058400      0.963700      0.030300
   15.0      0.848037      0.099822      0.923022      0.054267
   20.0      0.743732      0.189412      0.871144      0.109458
   25.0      0.606460      0.283052      0.799092      0.177363
   30.0      0.496006      0.487451      0.771808      0.315793
   35.0      0.623013      0.529896      0.848797      0.312153
   40.0      0.519435      0.455908      0.778000      0.293000
   45.0      0.305817      0.431317      0.645972      0.333850
   50.0      0.017085      0.504868      0.511000      0.494000
   55.0     -0.268567      0.704891      0.492818      0.715162
   60.0     -0.600737      0.975765      0.522089      0.934504
   65.0     -0.827575      1.466615      0.654391      1.120635
   70.0     -0.756403      2.000179      0.831255      1.203062
   75.0     -0.457252      2.270009      0.963929      1.177477
   80.0     -0.331287      2.145080      0.958956      1.118437
   85.0     -0.636569      2.164632      0.899928      1.202674
   90.0     -0.901501      2.452913      0.925150      1.325687
   95.0     -0.998125      2.838263      1.002632      1.415426
  100.0     -0.950900      3.234000      1.100000      1.470000
  105.0     -0.754816      3.546781      1.198205      1.480039
  110.0     -0.498111      3.654856      1.263036      1.446844
  115.0     -0.266314      3.574900      1.288107      1.387654
  120.0     -0.260723      3.263880      1.227515      1.329467
  125.0     -0.601952      3.019919      1.112972      1.356694
  130.0     -1.040794      3.044179      1.043143      1.459090
  135.0     -1.373138      3.167779      1.019647      1.553333
  140.0     -1.652945      3.338710      1.018002      1.639911
  145.0     -1.979248      3.361379      0.980193      1.714637
  150.0     -2.455062      3.433644      0.939668      1.827058
  155.0     -2.924531      3.654300      0.937000      1.950000
  160.0     -3.498774      3.897951      0.932504      2.090038
  165.0     -4.059157      4.295739      0.962037      2.232620
  170.0     -4.611151      4.704680      0.994105      2.366307
  175.0     -5.163900      5.220599      1.043860      2.500682
  180.0     -5.763176      5.769496      1.093550      2.637987
  185.0     -6.369371      6.433334      1.158366      2.776906
  190.0     -7.029091      7.314719      1.248093      2.930360
  195.0     -7.708755      8.238678      1.336766      3.081523
  200.0     -8.336700      9.525600      1.470000      3.240000
  205.0     -8.699644     11.082860      1.641589      3.375607
  210.0     -9.036895     12.844694      1.825963      3.517244
  215.0     -8.944199     14.984120      2.062328      3.632840
  220.0     -8.143163     17.325104      2.345257      3.693658
  225.0     -6.530723     19.570491      2.655223      3.685238
  230.0     -4.080655     20.974237      2.940003      3.567047
  235.0     -1.571089     21.391921      3.152451      3.392739
  240.0      0.764553     21.211510      3.316209      3.198483
  245.0      2.741080     20.166922      3.397792      2.967406
  250.0      3.790632     18.827511      3.390980      2.776124
  255.0      4.328917     17.657157      3.354684      2.631749
  260.0      4.553702     16.859484      3.317984      2.540613
  265.0      4.689677     16.160443      3.279971      2.463504
  270.0      4.688767     15.559928      3.235733      2.404389
  275.0      4.662902     15.038630      3.194365      2.353928
  280.0      4.496626     14.641269      3.147433      2.325923
  285.0      4.264858     14.336211      3.100164      2.312143
  290.0      3.982414     14.124598      3.054319      2.312258
  295.0      3.644264     14.028257      3.011491      2.329124
  300.0      3.341775     14.035915      2.980759      2.354400
  305.0      3.053205     14.150917      2.960581      2.389908
  310.0      2.797600     14.337000      2.950000      2.430000
  315.0      2.606804     14.584045      2.951453      2.470660
  320.0      2.491583     14.954901      2.970888      2.516885
  325.0      2.416122     15.224986      2.985955      2.549473
  330.0      2.356644     15.653338      3.015481      2.595469
  335.0      2.436155     15.975062      3.049256      2.619506
  340.0      2.532736     16.401303      3.092612      2.651700
  345.0      2.689600     16.759290      3.135542      2.672458
  350.0      2.914795     17.163450      3.187798      2.692068
  355.0      3.276033     17.566745      3.251568      2.701248
  360.0      3.805712     17.961261      3.329104      2.697631
  365.0      4.454260     18.029131      3.393044      2.656774
  370.0      4.996083     17.840177      3.429479      2.601004
  375.0      5.356525     17.632497      3.448515      2.556531
  380.0      5.643232     17.294821      3.452230      2.504884
  385.0      5.763349     16.942644      3.439412      2.462997
  390.0      5.746502     16.703785      3.421348      2.441130
  395.0      5.719439     16.515177      3.405650      2.424660
  400.0      5.684000     16.339800      3.390000      2.410000
  405.0      5.543841     16.314341      3.374501      2.417312
  410.0      5.427168     16.267986      3.359795      2.420961
  415.0      5.326552     16.194235      3.344722      2.420873
  420.0      5.191847     16.182314      3.330663      2.429294
  425.0      5.073767     16.232359      3.322694      2.442647
  430.0      4.965514     16.302368      3.317180      2.457262
  435.0      4.855200     16.351400      3.310000      2.470000
  440.0      4.746890     16.381063      3.301649      2.480756
  445.0      4.648184     16.511244      3.301613      2.500456
  450.0      4.567260     16.719742      3.309050      2.526354
  455.0      4.507547     16.822126      3.310812      2.540504
  460.0      4.440779     16.899813      3.310164      2.552712
  465.0      4.353208     17.075504      3.314748      2.575683
  470.0      4.299413     17.282541      3.324797      2.599033
  475.0      4.292252     17.453228      3.336570      2.615436
  480.0      4.282859     17.560223      3.343497      2.626045
  485.0      4.258916     17.655114      3.348170      2.636541
  490.0      4.237788     17.832037      3.359051      2.654303
  495.0      4.238176     18.072562      3.376466      2.676249
  500.0      4.275263     18.306594      3.396640      2.694814
  505.0      4.337502     18.500778      3.416130      2.707856
  510.0      4.404698     18.640975      3.432136      2.715656
  515.0      4.477725     18.740472      3.445705      2.719398
  520.0      4.566034     18.823898      3.459461      2.720639
  525.0      4.663277     18.897924      3.473329      2.720433
  530.0      4.753300     18.958209      3.485565      2.719533
  535.0      4.821362     19.005755      3.494933      2.719047
  540.0      4.854397     19.047352      3.500759      2.720459
  545.0      4.846338     19.084906      3.502646      2.724349
  550.0      4.807462     19.108133      3.500794      2.729112
  555.0      4.749480     19.111137      3.495838      2.733430
  560.0      4.677306     19.133421      3.490984      2.740429
  565.0      4.592885     19.234357      3.490566      2.755177
  570.0      4.505595     19.429382      3.496487      2.778363
  575.0      4.438138     19.655147      3.506296      2.802816
  580.0      4.412568     19.844660      3.517226      2.821095
  585.0      4.426765     19.984960      3.528173      2.832227
  590.0      4.462730     20.098571      3.539124      2.839486
  595.0      4.503675     20.205953      3.550030      2.845871
  600.0      4.540380     20.313915      3.560579      2.852602
  605.0      4.566028     20.424930      3.570372      2.860337
  610.0      4.577809     20.541873      3.579372      2.869495
  615.0      4.587128     20.669032      3.588823      2.879655
  620.0      4.608541     20.811015      3.600258      2.890211
  625.0      4.652508     20.969350      3.614654      2.900578
  630.0      4.714052     21.133988      3.630910      2.910259
  635.0      4.784562     21.292149      3.647437      2.918777
  640.0      4.856494     21.433332      3.662886      2.925771
  645.0      4.929261     21.561855      3.677488      2.931642
  650.0      5.005058     21.687967      3.692106      2.937095
  655.0      5.086207     21.821427      3.707580      2.942787
  660.0      5.178104     21.959202      3.724173      2.948133
  665.0      5.289378     22.084779      3.741535      2.951241
  670.0      5.428813     22.181004      3.759287      2.950158
  675.0      5.601210     22.234968      3.776999      2.943531
  680.0      5.793409     22.252909      3.794007      2.932721
  685.0      5.987186     22.246458      3.809577      2.919851
  690.0      6.164379     22.227200      3.822982      2.907038
  695.0      6.314967     22.200200      3.833744      2.895330
  700.0      6.445182     22.157502      3.841893      2.883637
  705.0      6.563189     22.089607      3.847517      2.870619
  710.0      6.677070     21.987111      3.850706      2.854948
  715.0      6.788774     21.848123      3.851494      2.836316
  720.0      6.889849     21.683490      3.849830      2.816148
  725.0      6.970834     21.505291      3.845652      2.796037
  730.0      7.022275     21.325597      3.838897      2.777573
  735.0      7.038216     21.152012      3.829515      2.761754
  740.0      7.021943     20.980324      3.817479      2.748009
  745.0      6.978258     20.804391      3.802768      2.735508
  750.0      6.911961     20.618069      3.785360      2.723422
  755.0      6.827404     20.416467      3.765278      2.711065
  760.0      6.724612     20.206766      3.742967      2.699108
  765.0      6.601192     20.002892      3.719111      2.688986
  770.0      6.454726     19.818843      3.694395      2.682140
  775.0      6.282796     19.668617      3.669505      2.680013
  780.0      6.085166     19.562213      3.645069      2.683540
  785.0      5.869820     19.494544      3.621502      2.691750
  790.0      5.646680     19.456976      3.599167      2.703222
  795.0      5.425667     19.440875      3.578427      2.716535
  800.0      5.216703     19.437604      3.559646      2.730270
  805.0      5.027003     19.439483      3.542995      2.743269
  810.0      4.853590     19.442417      3.527923      2.755369
  815.0      4.691089     19.443156      3.513704      2.766642
  820.0      4.534125     19.438451      3.499618      2.777158
  825.0      4.377321     19.425054      3.484940      2.786988
  830.0      4.215589     19.400205      3.469010      2.796227
  835.0      4.047015     19.366578      3.451859      2.805241
  840.0      3.871662     19.330232      3.433948      2.814561
  845.0      3.689624     19.297274      3.415746      2.824722
  850.0      3.500995     19.273813      3.397720      2.836259
  855.0      3.305868     19.265956      3.380338      2.849708
  860.0      3.104697     19.277983      3.363962      2.865415
  865.0      2.899465     19.306400      3.348504      2.882932
  870.0      2.692562     19.345651      3.333754      2.901599
  875.0      2.486378     19.390180      3.319504      2.920757
  880.0      2.283303     19.434430      3.305545      2.939747
  885.0      2.085726     19.472846      3.291669      2.957908
  890.0      1.895388     19.501031      3.277702      2.974728
  895.0      1.710290     19.521261      3.263670      2.990541
  900.0      1.527103     19.538189      3.249669      3.005984
  905.0      1.342495     19.556475      3.235797      3.021693
  910.0      1.153132     19.580774      3.222150      3.038304
  915.0      0.955684     19.615746      3.208826      3.056454
  920.0      0.746859     19.665998      3.195922      3.076772
  925.0      0.526134     19.732800      3.183487      3.099402
  930.0      0.297427     19.812065      3.171503      3.123704
  935.0      0.065058     19.899221      3.159943      3.148971
  940.0     -0.166653     19.989696      3.148778      3.174494
  945.0     -0.393387     20.078920      3.137983      3.199564
  950.0     -0.610823     20.162321      3.127530      3.223472
  955.0     -0.814670     20.235353      3.117393      3.245515
  960.0     -1.003707     20.296364      3.107546      3.265456
  965.0     -1.182515     20.349166      3.097965      3.283943
  970.0     -1.356320     20.398181      3.088626      3.301724
  975.0     -1.530349     20.447829      3.079507      3.319546
  980.0     -1.709828     20.502530      3.070585      3.338156
  985.0     -1.899984     20.566704      3.061835      3.358300
  990.0     -2.106041     20.644772      3.053234      3.380725
  995.0     -2.332778     20.740856      3.044767      3.406120
 1000.0     -2.578752     20.854955      3.036525      3.434361
 1005.0     -2.837980     20.984056      3.028677      3.464732
 1010.0     -3.104374     21.125078      3.021393      3.496503
 1015.0     -3.371846     21.274938      3.014845      3.528944
 1020.0     -3.634311     21.430557      3.009203      3.561325
 1025.0     -3.885681     21.588852      3.004638      3.592917
 1030.0     -4.119868     21.746742      3.001321      3.622989
 1035.0     -4.330895     21.901190      2.999417      3.650825
 1040.0     -4.517059     22.050854      2.998936      3.676181
 1045.0     -4.682209     22.196603      2.999679      3.699432
 1050.0     -4.830563     22.339449      3.001433      3.720994
 1055.0     -4.966341     22.480406      3.003986      3.741283
 1060.0     -5.093762     22.620488      3.007125      3.760715
 1065.0     -5.217046     22.760708      3.010638      3.779705
 1070.0     -5.340412     22.902079      3.014313      3.798670
 1075.0     -5.468080     23.045617      3.017938      3.818026
 1080.0     -5.604195     23.192314      3.021303      3.838181
 1085.0     -5.750089     23.342451      3.024330      3.859268
 1090.0     -5.903433     23.495375      3.027110      3.881062
 1095.0     -6.061653     23.650370      3.029746      3.903313
 1100.0     -6.222175     23.806722      3.032340      3.925772
 1105.0     -6.382427     23.963716      3.034996      3.948189
 1110.0     -6.539835     24.120637      3.037814      3.970314
 1115.0     -6.691825     24.276770      3.040899      3.991898
 1120.0     -6.835825     24.431401      3.044352      4.012692
 1125.0     -6.969260     24.583815      3.048276      4.032446
 1130.0     -7.089715     24.733321      3.052765      4.050924
 1135.0     -7.197122     24.879579      3.057800      4.068103
 1140.0     -7.293221     25.022521      3.063268      4.084121
 1145.0     -7.379802     25.162088      3.069057      4.099121
 1150.0     -7.458651     25.298217      3.075055      4.113245
 1155.0     -7.531556     25.430849      3.081148      4.126638
 1160.0     -7.600304     25.559923      3.087223      4.139441
 1165.0     -7.666683     25.685377      3.093168      4.151797
 1170.0     -7.732481     25.807151      3.098870      4.163850
 1175.0     -7.799486     25.925184      3.104215      4.175741
 1180.0     -7.869484     26.039415      3.109091      4.187615
 1185.0     -7.944017     26.149796      3.113401      4.199594
 1190.0     -8.022805     26.256365      3.117162      4.211664
 1195.0     -8.104751     26.359199      3.120445      4.223745
 1200.0     -8.188755     26.458379      3.123319      4.235758
 1205.0     -8.273715     26.553980      3.125854      4.247626
 1210.0     -8.358533     26.646083      3.128121      4.259269
 1215.0     -8.442107     26.734765      3.130189      4.270609
 1220.0     -8.523336     26.820104      3.132129      4.281566
 1225.0     -8.601120     26.902179      3.134010      4.292063
 1230.0     -8.674359     26.981068      3.135902      4.302020
 1235.0     -8.741953     27.056849      3.137875      4.311359
 1240.0     -8.802800     27.129600      3.140000      4.320000
 1245.0     -8.856759     27.199539      3.142303      4.327946
 1250.0     -8.907519     27.267437      3.144641      4.335517
 1255.0     -8.959730     27.334206      3.146828      4.343115
 1260.0     -9.018041     27.400757      3.148676      4.351142
 1265.0     -9.087100     27.468000      3.150000      4.360000
 1270.0     -9.169609     27.536270      3.150675      4.369912
 1275.0     -9.260484     27.603596      3.150828      4.380391
 1280.0     -9.352693     27.667428      3.150646      4.390774
 1285.0     -9.439205     27.725217      3.150319      4.400395
 1290.0     -9.512989     27.774416      3.150035      4.408590
 1295.0     -9.568101     27.812910      3.149956      4.414801
 1300.0     -9.606634     27.841804      3.150054      4.419245
 1305.0     -9.634281     27.863644      3.150212      4.422486
 1310.0     -9.656754     27.880983      3.150317      4.425094
 1315.0     -9.679766     27.896374      3.150252      4.427635
 1320.0     -9.709013     27.912363      3.149902      4.430674
 1325.0     -9.747477     27.929871      3.149176      4.434487
 1330.0     -9.792067     27.946203      3.148034      4.438699
 1335.0     -9.838875     27.958172      3.146447      4.442846
 1340.0     -9.883991     27.962590      3.144380      4.446464
 1345.0     -9.923506     27.956271      3.141804      4.449092
 1350.0     -9.953593     27.936087      3.138686      4.450274
 1355.0     -9.973635     27.901223      3.134998      4.449924
 1360.0     -9.987188     27.853863      3.130715      4.448426
 1365.0     -9.998085     27.796396      3.125814      4.446199
 1370.0    -10.010160     27.731207      3.120269      4.443662
 1375.0    -10.027247     27.660682      3.114058      4.441232
 1380.0    -10.053088     27.587139      3.107153      4.439317
 1385.0    -10.087869     27.510144      3.099509      4.437906
 1390.0    -10.127156     27.425694      3.091046      4.436444
 1395.0    -10.166204     27.329547      3.081684      4.434339
 1400.0    -10.200272     27.217462      3.071341      4.431001
 1405.0    -10.224615     27.085195      3.059939      4.425840
 1410.0    -10.234525     26.928522      3.047396      4.418267
 1415.0    -10.232655     26.746869      3.033521      4.408464
 1420.0    -10.238080     26.547804      3.017878      4.398332
 1425.0    -10.272100     26.340000      3.000000      4.390000
 1430.0    -10.347923     26.127953      2.979515      4.384740
 1435.0    -10.446406     25.899467      2.956439      4.380378
 1440.0    -10.540317     25.638172      2.930888      4.373878
 1445.0    -10.605353     25.328744      2.902903      4.362502
 1450.0    -10.661095     24.971536      2.871437      4.347937
 1455.0    -10.760897     24.578965      2.834607      4.335276
 1460.0    -10.958850     24.163773      2.790516      4.329690
 1465.0    -11.280893     23.741617      2.739064      4.334202
 1470.0    -11.690152     23.334656      2.684163      4.347034
 1475.0    -12.141252     22.965930      2.630267      4.365761
 1480.0    -12.593682     22.655867      2.581355      4.388198
 1485.0    -13.042858     22.405602      2.537908      4.413956
 1490.0    -13.500301     22.207619      2.498839      4.443444
 1495.0    -13.977569     22.054363      2.463054      4.477075
 1500.0    -14.478126     21.938026      2.429780      4.514607
 1505.0    -14.987378     21.850234      2.398958      4.554330
 1510.0    -15.488288     21.782542      2.370627      4.594342
 1515.0    -15.964529     21.726787      2.344815      4.632811
 1520.0    -16.410400     21.679103      2.321419      4.669042
 1525.0    -16.828382     21.638928      2.300230      4.703209
 1530.0    -17.221164     21.605785      2.281036      4.735510
 1535.0    -17.591436     21.579197      2.263627      4.766142
 1540.0    -17.941890     21.558688      2.247792      4.795302
 1545.0    -18.275214     21.543781      2.233320      4.823189
 1550.0    -18.594100     21.534000      2.220000      4.850000
 1555.0    -18.901354     21.528533      2.207602      4.875933
 1560.0    -19.200253     21.525233      2.195822      4.901191
 1565.0    -19.494186     21.521620      2.184336      4.925978
 1570.0    -19.786547     21.515211      2.172820      4.950499
 1575.0    -20.080727     21.503526      2.160953      4.974958
 1580.0    -20.380117     21.484083      2.148409      4.999558
 1585.0    -20.688111     21.454402      2.134866      5.024504
 1590.0    -21.008100     21.412000      2.120000      5.050000
 1595.0    -21.342470     21.355270      2.103596      5.076195
 1600.0    -21.689585     21.286091      2.085872      5.103017
 1605.0    -22.046803     21.207219      2.067152      5.130339
 1610.0    -22.411484     21.121404      2.047761      5.158034
 1615.0    -22.780986     21.031402      2.028026      5.185974
 1620.0    -23.152667     20.939965      2.008270      5.214033
 1625.0    -23.523885     20.849847      1.988820      5.242084
 1630.0    -23.892000     20.763800      1.970000      5.270000
 1635.0    -24.255044     20.683997      1.952064      5.297688
 1640.0    -24.613751     20.610286      1.934975      5.325200
 1645.0    -24.969528     20.541931      1.918626      5.352620
 1650.0    -25.323783     20.478200      1.902908      5.380033
 1655.0    -25.677924     20.418358      1.887713      5.407526
 1660.0    -26.033358     20.361671      1.872933      5.435184
 1665.0    -26.391494     20.307405      1.858459      5.463092
 1670.0    -26.753739     20.254826      1.844184      5.491335
 1675.0    -27.121500     20.203200      1.830000      5.520000
 1680.0    -27.495893     20.151945      1.815821      5.549152
 1685.0    -27.876859     20.101083      1.801653      5.578781
 1690.0    -28.264047     20.050791      1.787525      5.608858
 1695.0    -28.657106     20.001242      1.773467      5.639353
 1700.0    -29.055684     19.952613      1.759508      5.670236
 1705.0    -29.459431     19.905078      1.745677      5.701480
 1710.0    -29.867995     19.858812      1.732003      5.733053
 1715.0    -30.281025     19.813991      1.718515      5.764927
 1720.0    -30.698169     19.770788      1.705242      5.797073
 1725.0    -31.119063     19.729387      1.692214      5.829459
 1730.0    -31.543145     19.690072      1.679464      5.862044
 1735.0    -31.969700     19.653209      1.667027      5.894774
 1740.0    -32.398008     19.619165      1.654940      5.927599
 1745.0    -32.827351     19.588306      1.643239      5.960465
 1750.0    -33.257009     19.561001      1.631959      5.993319
 1755.0    -33.686265     19.537615      1.621137      6.026110
 1760.0    -34.114398     19.518517      1.610808      6.058784
 1765.0    -34.540691     19.504073      1.601009      6.091290
 1770.0    -34.964424     19.494650      1.591776      6.123574
 1775.0    -35.384959     19.490529      1.583136      6.155590
 1780.0    -35.802263     19.491350      1.575056      6.187329
 1785.0    -36.216570     19.496467      1.567478      6.218797
 1790.0    -36.628116     19.505232      1.560341      6.250005
 1795.0    -37.037139     19.516997      1.553585      6.280959
 1800.0    -37.443874     19.531115      1.547151      6.311668
 1805.0    -37.848559     19.546937      1.540978      6.342139
 1810.0    -38.251430     19.563817      1.535008      6.372382
 1815.0    -38.652723     19.581105      1.529179      6.402404
 1820.0    -39.052674     19.598154      1.523433      6.432213
 1825.0    -39.451527     19.614322      1.517710      6.461818
 1830.0    -39.849721     19.629153      1.511966      6.491244
 1835.0    -40.247959     19.642433      1.506178      6.520537
 1840.0    -40.646959     19.653967      1.500324      6.549744
 1845.0    -41.047440     19.663559      1.494384      6.578915
 1850.0    -41.450121     19.671012      1.488335      6.608096
 1855.0    -41.855721     19.676129      1.482156      6.637335
 1860.0    -42.264957     19.678716      1.475824      6.666680
 1865.0    -42.678550     19.678575      1.469320      6.696179
 1870.0    -43.097217     19.675511      1.462620      6.725879
 1875.0    -43.521677     19.669326      1.455704      6.755829
 1880.0    -43.952648     19.659826      1.448549      6.786075
 1885.0    -44.390385     19.646995      1.441153      6.816637
 1890.0    -44.834122     19.631219      1.433552      6.847468
 1895.0    -45.282950     19.612939      1.425789      6.878510
 1900.0    -45.735963     19.592596      1.417906      6.909709
 1905.0    -46.192254     19.570628      1.409946      6.941009
 1910.0    -46.650915     19.547478      1.401952      6.972353
 1915.0    -47.111041     19.523586      1.393966      7.003686
 1920.0    -47.571724     19.499391      1.386030      7.034952
 1925.0    -48.032057     19.475335      1.378188      7.066094
 1930.0    -48.491132     19.451857      1.370481      7.097058
 1935.0    -48.948044     19.429399      1.362952      7.127787
 1940.0    -49.401954     19.408381      1.355642      7.158229
 1945.0    -49.853046     19.388935      1.348557      7.188397
 1950.0    -50.302295     19.370969      1.341679      7.218352
 1955.0    -50.750693     19.354385      1.334988      7.248158
 1960.0    -51.199236     19.339084      1.328465      7.277875
 1965.0    -51.648916     19.324971      1.322090      7.307569
 1970.0    -52.100727     19.311947      1.315845      7.337300
 1975.0    -52.555663     19.299914      1.309709      7.367132
 1980.0    -53.014718     19.288774      1.303664      7.397128
 1985.0    -53.478885     19.278431      1.297690      7.427350
 1990.0    -53.949159     19.268786      1.291767      7.457860
 1995.0    -54.426533     19.259741      1.285877      7.488723
 2000.0    -54.912000     19.251200      1.280000      7.520000
 2005.0    -55.406271     19.243118      1.274123      7.551736
 2010.0    -55.908919     19.235667      1.268261      7.583904
 2015.0    -56.419235     19.229073      1.262435      7.616458
 2020.0    -56.936508     19.223561      1.256666      7.649352
 2025.0    -57.460028     19.219358      1.250975      7.682542
 2030.0    -57.989086     19.216689      1.245384      7.715981
 2035.0    -58.522972     19.215780      1.239915      7.749625
 2040.0    -59.060975     19.216857      1.234587      7.783428
 2045.0    -59.602386     19.220145      1.229423      7.817343
 2050.0    -60.146495     19.225871      1.224444      7.851327
 2055.0    -60.692591     19.234259      1.219671      7.885333
 2060.0    -61.239965     19.245536      1.215125      7.919315
 2065.0    -61.787906     19.259928      1.210828      7.953229
 2070.0    -62.335780     19.277652      1.206798      7.987034
 2075.0    -62.883504     19.298863      1.203044      8.020724
 2080.0    -63.431243     19.323691      1.199567      8.054311
 2085.0    -63.979163     19.352263      1.196368      8.087806
 2090.0    -64.527430     19.384707      1.193450      8.121219
 2095.0    -65.076212     19.421151      1.190813      8.154561
 2100.0    -65.625674     19.461724      1.188459      8.187844
 2105.0    -66.175982     19.506554      1.186391      8.221078
 2110.0    -66.727303     19.555769      1.184609      8.254275
 2115.0    -67.279803     19.609496      1.183115      8.287446
 2120.0    -67.833648     19.667865      1.181911      8.320601
 2125.0    -68.389005     19.731003      1.180998      8.353751
 2130.0    -68.946039     19.799038      1.180378      8.386908
 2135.0    -69.504918     19.872098      1.180053      8.420082
 2140.0    -70.065803     19.950306      1.180024      8.453285
 2145.0    -70.628696     20.033544      1.180281      8.486516
 2150.0    -71.193388     20.121382      1.180801      8.519760
 2155.0    -71.759657     20.213370      1.181559      8.553004
 2160.0    -72.327281     20.309060      1.182532      8.586232
 2165.0    -72.896039     20.408000      1.183693      8.619429
 2170.0    -73.465707     20.509741      1.185020      8.652580
 2175.0    -74.036064     20.613833      1.186487      8.685670
 2180.0    -74.606889     20.719826      1.188070      8.718684
 2185.0    -75.177958     20.827271      1.189744      8.751607
 2190.0    -75.749049     20.935717      1.191485      8.784425
 2195.0    -76.319942     21.044714      1.193268      8.817121
 2200.0    -76.890413     21.153813      1.195070      8.849681
 2205.0    -77.460241     21.262563      1.196864      8.882091
 2210.0    -78.029203     21.370515      1.198628      8.914335
 2215.0    -78.597078     21.477220      1.200336      8.946397
 2220.0    -79.163772     21.582458      1.201976      8.978273
 2225.0    -79.729477     21.686520      1.203561      9.009973
 2230.0    -80.294422     21.789766      1.205108      9.041514
 2235.0    -80.858837     21.892555      1.206634      9.072910
 2240.0    -81.422952     21.995247      1.208155      9.104176
 2245.0    -81.986996     22.098203      1.209690      9.135327
 2250.0    -82.551200     22.201782      1.211254      9.166379
 2255.0    -83.115793     22.306344      1.212865      9.197345
 2260.0    -83.681005     22.412250      1.214539      9.228242
 2265.0    -84.247065     22.519859      1.216294      9.259084
 2270.0    -84.814204     22.629530      1.218146      9.289887
 2275.0    -85.382651     22.741624      1.220112      9.320664
 2280.0    -85.952636     22.856501      1.222210      9.351432
 2285.0    -86.524389     22.974521      1.224455      9.382206
 2290.0    -87.098139     23.096043      1.226866      9.413000
 2295.0    -87.674117     23.221428      1.229458      9.443829
 2300.0    -88.252491     23.350983      1.232247      9.474705
 2305.0    -88.832986     23.484637      1.235230      9.505615
 2310.0    -89.415124     23.622145      1.238397      9.536537
 2315.0    -89.998429     23.763264      1.241737      9.567446
 2320.0    -90.582423     23.907748      1.245240      9.598318
 2325.0    -91.166628     24.055355      1.248896      9.629131
 2330.0    -91.750568     24.205839      1.252695      9.659860
 2335.0    -92.333764     24.358956      1.256625      9.690482
 2340.0    -92.915740     24.514461      1.260678      9.720974
 2345.0    -93.496019     24.672112      1.264842      9.751311
 2350.0    -94.074122     24.831663      1.269108      9.781470
 2355.0    -94.649572     24.992869      1.273464      9.811428
 2360.0    -95.221893     25.155488      1.277902      9.841161
 2365.0    -95.790606     25.319274      1.282409      9.870645
 2370.0    -96.355234     25.483983      1.286977      9.899857
 2375.0    -96.915301     25.649371      1.291595      9.928772
 2380.0    -97.470328     25.815193      1.296253      9.957369
 2385.0    -98.019839     25.981207      1.300939      9.985622
 2390.0    -98.563723     26.147300      1.305649     10.013527
 2395.0    -99.102674     26.313658      1.310386     10.041117
 2400.0    -99.637496     26.480505      1.315156     10.068431
 2405.0   -100.168996     26.648066      1.319962     10.095509
 2410.0   -100.697977     26.816565      1.324811     10.122389
 2415.0   -101.225244     26.986229      1.329708     10.149112
 2420.0   -101.751603     27.157280      1.334657     10.175716
 2425.0   -102.277859     27.329945      1.339664     10.202241
 2430.0   -102.804815     27.504448      1.344734     10.228726
 2435.0   -103.333277     27.681013      1.349871     10.255210
 2440.0   -103.864050     27.859866      1.355081     10.281732
 2445.0   -104.397938     28.041230      1.360370     10.308332
 2450.0   -104.935747     28.225332      1.365741     10.335048
 2455.0   -105.478281     28.412395      1.371201     10.361921
 2460.0   -106.026345     28.602644      1.376754     10.388989
 2465.0   -106.580744     28.796304      1.382405     10.416292
 2470.0   -107.142283     28.993601      1.388160     10.443868
 2475.0   -107.711767     29.194758      1.394023     10.471758
 2480.0   -108.290000     29.400000      1.400000     10.500000
 2485.0   -108.877483     29.609469      1.406094     10.528619
 2490.0   -109.473501     29.822976      1.412300     10.557583
 2495.0   -110.077033     30.040246      1.418611     10.586843
 2500.0   -110.687060     30.261006      1.425022     10.616354
 2505.0   -111.302561     30.484983      1.431525     10.646068
 2510.0   -111.922516     30.711904      1.438115     10.675937
 2515.0   -112.545906     30.941496      1.444783     10.705914
 2520.0   -113.171710     31.173485      1.451525     10.735953
 2525.0   -113.798909     31.407598      1.458334     10.766006
 2530.0   -114.426482     31.643561      1.465202     10.796025
 2535.0   -115.053409     31.881103      1.472123     10.825964
 2540.0   -115.678671     32.119948      1.479092     10.855775
 2545.0   -116.301248     32.359824      1.486100     10.885412
 2550.0   -116.920119     32.600458      1.493143     10.914826
 2555.0   -117.534264     32.841577      1.500213     10.943972
 2560.0   -118.142664     33.082907      1.507303     10.972801
 2565.0   -118.744299     33.324174      1.514407     11.001266
 2570.0   -119.338148     33.565107      1.521520     11.029320
 2575.0   -119.923191     33.805430      1.528633     11.056916
 2580.0   -120.498410     34.044872      1.535741     11.084008
 2585.0   -121.062800     34.283162      1.542837     11.110547
 2590.0   -121.616030     34.520146      1.549916     11.136520
 2595.0   -122.158642     34.755823      1.556975     11.161951
 2600.0   -122.691235     34.990201      1.564012     11.186868
 2605.0   -123.214409     35.223289      1.571025     11.211300
 2610.0   -123.728761     35.455096      1.578010     11.235275
 2615.0   -124.234892     35.685629      1.584964     11.258820
 2620.0   -124.733402     35.914899      1.591886     11.281964
 2625.0   -125.224888     36.142912      1.598773     11.304734
 2630.0   -125.709951     36.369678      1.605622     11.327159
 2635.0   -126.189189     36.595204      1.612430     11.349266
 2640.0   -126.663203     36.819501      1.619195     11.371084
 2645.0   -127.132591     37.042576      1.625914     11.392641
 2650.0   -127.597953     37.264437      1.632584     11.413965
 2655.0   -128.059887     37.485094      1.639203     11.435083
 2660.0   -128.518994     37.704554      1.645769     11.456024
 2665.0   -128.975872     37.922827      1.652278     11.476815
 2670.0   -129.431121     38.139921      1.658728     11.497486
 2675.0   -129.885340     38.355844      1.665116     11.518063
 2680.0   -130.339128     38.570605      1.671440     11.538575
 2685.0   -130.793084     38.784212      1.677697     11.559050
 2690.0   -131.247809     38.996674      1.683885     11.579515
 2695.0   -131.703900     39.208000      1.690000     11.600000
 2700.0   -132.161828     39.418196      1.696041     11.620526
 2705.0   -132.621544     39.627261      1.702009     11.641090
 2710.0   -133.082870     39.835192      1.707904     11.661687
 2715.0   -133.545626     40.041986      1.713728     11.682309
 2720.0   -134.009635     40.247640      1.719483     11.702947
 2725.0   -134.474717     40.452152      1.725168     11.723594
 2730.0   -134.940696     40.655517      1.730787     11.744244
 2735.0   -135.407391     40.857734      1.736339     11.764888
 2740.0   -135.874624     41.058799      1.741827     11.785519
 2745.0   -136.342217     41.258709      1.747251     11.806130
 2750.0   -136.809992     41.457461      1.752613     11.826713
 2755.0   -137.277770     41.655052      1.757914     11.847260
 2760.0   -137.745373     41.851479      1.763155     11.867765
 2765.0   -138.212621     42.046740      1.768338     11.888219
 2770.0   -138.679337     42.240831      1.773463     11.908615
 2775.0   -139.145342     42.433750      1.778532     11.928945
 2780.0   -139.610457     42.625492      1.783547     11.949203
 2785.0   -140.074504     42.816056      1.788508     11.969381
 2790.0   -140.537305     43.005438      1.793417     11.989471
 2795.0   -140.998681     43.193635      1.798275     12.009465
 2800.0   -141.458454     43.380645      1.803083     12.029357
 2805.0   -141.916445     43.566464      1.807843     12.049138
 2810.0   -142.372475     43.751090      1.812555     12.068802
 2815.0   -142.826366     43.934518      1.817222     12.088340
 2820.0   -143.277944     44.116747      1.821843     12.107746
 2825.0   -143.727207     44.297760      1.826420     12.127019
 2830.0   -144.174372     44.477524      1.830949     12.146168
 2835.0   -144.619675     44.656004      1.835429     12.165201
 2840.0   -145.063349     44.833168      1.839856     12.184129
 2845.0   -145.505628     45.008981      1.844228     12.202960
 2850.0   -145.946746     45.183408      1.848543     12.221703
 2855.0   -146.386937     45.356417      1.852797     12.240369
 2860.0   -146.826436     45.527973      1.856990     12.258965
 2865.0   -147.265476     45.698041      1.861118     12.277501
 2870.0   -147.704292     45.866589      1.865178     12.295987
 2875.0   -148.143116     46.033582      1.869169     12.314432
 2880.0   -148.582184     46.198985      1.873088     12.332844
 2885.0   -149.021730     46.362766      1.876932     12.351233
 2890.0   -149.461987     46.524890      1.880698     12.369609
 2895.0   -149.903189     46.685322      1.884385     12.387980
 2900.0   -150.345571     46.844030      1.887990     12.406356
 2905.0   -150.789366     47.000978      1.891510     12.424745
 2910.0   -151.234809     47.156134      1.894943     12.443158
 2915.0   -151.682133     47.309463      1.898286     12.461603
 2920.0   -152.131573     47.460930      1.901537     12.480090
 2925.0   -152.583362     47.610503      1.904694     12.498628
 2930.0   -153.037735     47.758146      1.907754     12.517225
 2935.0   -153.494926     47.903827      1.910714     12.535892
 2940.0   -153.955168     48.047511      1.913572     12.554637
 2945.0   -154.418696     48.189163      1.916325     12.573469
 2950.0   -154.885743     48.328751      1.918972     12.592399
 2955.0   -155.356534     48.466238      1.921509     12.611434
 2960.0   -155.831141     48.601568      1.923935     12.630577
 2965.0   -156.309518     48.734667      1.926247     12.649826
 2970.0   -156.791619     48.865463      1.928445     12.669178
 2975.0   -157.277394     48.993880      1.930527     12.688630
 2980.0   -157.766797     49.119846      1.932491     12.708180
 2985.0   -158.259780     49.243287      1.934335     12.727826
 2990.0   -158.756294     49.364128      1.936057     12.747564
 2995.0   -159.256293     49.482298      1.937658     12.767392
 3000.0   -159.759727     49.597721      1.939133     12.787307
 3050.0   -164.972547     50.584697      1.946685     12.990704
 3100.0   -170.476400     51.216000      1.940000     13.200000
 3150.0   -176.220382     51.469924      1.919195     13.412846
 3200.0   -182.141183     51.532664      1.891370     13.627841
 3250.0   -188.172395     51.642387      1.865370     13.843825
 3300.0   -194.259489     52.008012      1.848965     14.059896
 3350.0   -200.454892     52.575188      1.840245     14.277484
 3400.0   -206.867628     53.150242      1.832179     14.499255
 3450.0   -213.607188     53.538340      1.817691     14.727885
 3500.0   -220.743641     53.632468      1.792806     14.965067
 3550.0   -228.236549     53.571774      1.762233     15.209740
 3600.0   -236.026257     53.538215      1.732193     15.460363
 3650.0   -244.053113     53.713738      1.708906     15.715398
 3700.0   -252.271805     54.232168      1.696906     15.973602
 3750.0   -260.684964     55.066446      1.695081     16.234723
 3800.0   -269.305230     56.155927      1.701139     16.498717
 3850.0   -278.145240     57.439970      1.712792     16.765541
 3900.0   -287.216372     58.859314      1.727799     17.035126
 3950.0   -296.500943     60.386545      1.745095     17.306838
 4000.0   -305.952215     62.026093      1.764786     17.579481
 4050.0   -315.522185     63.783775      1.787027     17.851833
 4100.0   -325.162850     65.665403      1.811975     18.122670
 4150.0   -334.826568     67.676719      1.839785     18.390781
 4200.0   -344.486299     69.819242      1.870482     18.655492
 4250.0   -354.146376     72.088059      1.903892     18.916950
 4300.0   -363.813762     74.477719      1.939828     19.175372
 4350.0   -373.495424     76.982771      1.978099     19.430975
 4400.0   -383.198326     79.597762      2.018517     19.683974
 4450.0   -392.929433     82.317241      2.060893     19.934586
 4500.0   -402.695711     85.135756      2.105038     20.183028
 4550.0   -412.504125     88.047855      2.150762     20.429516
 4600.0   -422.361639     91.048088      2.197876     20.674267
 4650.0   -432.275220     94.131002      2.246192     20.917496
 4700.0   -442.251833     97.291146      2.295520     21.159421
 4750.0   -452.298442    100.523067      2.345672     21.400258
 4800.0   -462.422012    103.821315      2.396457     21.640222
 4850.0   -472.629510    107.180438      2.447688     21.879532
 4900.0   -482.927899    110.594984      2.499174     22.118402
 4950.0   -493.324146    114.059501      2.550728     22.357050
 5000.0   -503.824521    117.569193      2.602179     22.595671
 5050.0   -514.430487    121.123809      2.653501     22.834316
 5100.0   -525.141468    124.725024      2.704725     23.072974
 5150.0   -535.956880    128.374517      2.755882     23.311634
 5200.0   -546.876141    132.073972      2.807004     23.550286
 5250.0   -557.898667    135.825068      2.858123     23.788917
 5300.0   -569.023876    139.629488      2.909271     24.027519
 5350.0   -580.251183    143.488911      2.960480     24.266079
 5400.0   -591.580006    147.405021      3.011782     24.504587
 5450.0   -603.009762    151.379497      3.063208     24.743031
 5500.0   -614.539867    155.414020      3.114790     24.981402
 5550.0   -626.169739    159.510273      3.166560     25.219688
 5600.0   -637.898794    163.669937      3.218550     25.457878
 5650.0   -649.726449    167.894692      3.270791     25.695961
 5700.0   -661.652121    172.186219      3.323316     25.933927
 5750.0   -673.675226    176.546201      3.376156     26.171764
 5800.0   -685.795183    180.976318      3.429343     26.409462
 5850.0   -698.011406    185.478251      3.482909     26.647009
 5900.0   -710.323314    190.053682      3.536885     26.884396
 5950.0   -722.730323    194.704291      3.591304     27.121610
 6000.0   -735.231850    199.431761      3.646197     27.358642
 6050.0   -747.827312    204.237772      3.701596     27.595480
 6100.0   -760.516126    209.124005      3.757533     27.832113
 6150.0   -773.297708    214.092142      3.814040     28.068530
 6200.0   -786.171475    219.143864      3.871148     28.304722
 6250.0   -799.135874    224.280577      3.928884     28.540665
 6300.0   -812.185695    229.502645      3.987249     28.776299
 6350.0   -825.314867    234.810190      4.046242     29.011554
 6400.0   -838.517319    240.203333      4.105859     29.246360
 6450.0   -851.786982    245.682196      4.166099     29.480647
 6500.0   -865.117784    251.246899      4.226959     29.714343
 6550.0   -878.503656    256.897564      4.288435     29.947379
 6600.0   -891.938525    262.634311      4.350526     30.179684
 6650.0   -905.416322    268.457262      4.413228     30.411189
 6700.0   -918.930976    274.366538      4.476540     30.641822
 6750.0   -932.476417    280.362260      4.540459     30.871514
 6800.0   -946.046574    286.444549      4.604981     31.100194
 6850.0   -959.635376    292.613526      4.670105     31.327792
 6900.0   -973.236782    298.869311      4.735828     31.554239
 6950.0   -986.848665    305.211839      4.802139     31.779515
 7000.0  -1000.476717    311.640677      4.869014     32.003710
 7050.0  -1014.127555    318.155348      4.936425     32.226922
 7100.0  -1027.807797    324.755374      5.004346     32.449250
 7150.0  -1041.524062    331.440280      5.072750     32.670794
 7200.0  -1055.282967    338.209588      5.141609     32.891655
 7250.0  -1069.091132    345.062821      5.210898     33.111930
 7300.0  -1082.955175    351.999502      5.280588     33.331720
 7350.0  -1096.881713    359.019154      5.350653     33.551124
 7400.0  -1110.877366    366.121300      5.421066     33.770241
 7450.0  -1124.948751    373.305464      5.491801     33.989172
 7500.0  -1139.102487    380.571168      5.562829     34.208015
 7550.0  -1153.345192    387.917935      5.634125     34.426870
 7600.0  -1167.683485    395.345288      5.705661     34.645837
 7650.0  -1182.123983    402.852751      5.777411     34.865015
 7700.0  -1196.673305    410.439847      5.849347     35.084504
 7750.0  -1211.338069    418.106098      5.921443     35.304403
 7800.0  -1226.122913    425.851270      5.993680     35.524784
 7850.0  -1241.025007    433.676048      6.066066     35.745617
 7900.0  -1256.039767    441.581329      6.138618     35.966849
 7950.0  -1271.162608    449.568012      6.211353     36.188424
 8000.0  -1286.388943    457.636997      6.284288     36.410289
 8050.0  -1301.714187    465.789181      6.357437     36.632390
 8100.0  -1317.133754    474.025465      6.430819     36.854672
 8150.0  -1332.643060    482.346745      6.504449     37.077081
 8200.0  -1348.237519    490.753922      6.578343     37.299564
 8250.0  -1363.912546    499.247894      6.652519     37.522065
 8300.0  -1379.663554    507.829560      6.726992     37.744531
 8350.0  -1395.485958    516.499819      6.801778     37.966907
 8400.0  -1411.375173    525.259568      6.876895     38.189139
 8450.0  -1427.326614    534.109708      6.952358     38.411174
 8500.0  -1443.335695    543.051137      7.028185     38.632957
 8550.0  -1459.397830    552.084753      7.104390     38.854433
 8600.0  -1475.508435    561.211456      7.180992     39.075549
 8650.0  -1491.662923    570.432145      7.258005     39.296250
 8700.0  -1507.856709    579.747717      7.335447     39.516482
 8750.0  -1524.085208    589.159072      7.413334     39.736192
 8800.0  -1540.343834    598.667109      7.491682     39.955324
 8850.0  -1556.628001    608.272726      7.570508     40.173825
 8900.0  -1572.933727    617.976721      7.649825     40.391648
 8950.0  -1589.260486    627.779311      7.729633     40.608794
 9000.0  -1605.608988    637.680505      7.809923     40.825280
 9050.0  -1621.979945    647.680313      7.890691     41.041122
 9100.0  -1638.374068    657.778743      7.971929     41.256336
 9150.0  -1654.792069    667.975805      8.053631     41.470941
 9200.0  -1671.234658    678.271508      8.135790     41.684952
 9250.0  -1687.702547    688.665861      8.218399     41.898386
 9300.0  -1704.196447    699.158873      8.301453     42.111260
 9350.0  -1720.717070    709.750554      8.384943     42.323592
 9400.0  -1737.265127    720.440912      8.468864     42.535397
 9450.0  -1753.841329    731.229957      8.553209     42.746692
 9500.0  -1770.446388    742.117697      8.637971     42.957494
 9550.0  -1787.081015    753.104143      8.723144     43.167820
 9600.0  -1803.745922    764.189304      8.808722     43.377687
 9650.0  -1820.441819    775.373187      8.894696     43.587111
 9700.0  -1837.169418    786.655803      8.981062     43.796110
 9750.0  -1853.929430    798.037161      9.067812     44.004699
 9800.0  -1870.722567    809.517270      9.154939     44.212897
 9850.0  -1887.549540    821.096139      9.242438     44.420718
 9900.0  -1904.411060    832.773778      9.330301     44.628181
 9950.0  -1921.307839    844.550195      9.418522     44.835302
10000.0  -1938.240588    856.425399      9.507094     45.042098
10050.0  -1955.210018    868.399400      9.596010     45.248586
10100.0  -1972.216841    880.472207      9.685265     45.454781
10150.0  -1989.261768    892.643829      9.774850     45.660702
10200.0  -2006.345510    904.914276      9.864761     45.866365
10250.0  -2023.468779    917.283556      9.954989     46.071786
10300.0  -2040.632286    929.751678     10.045529     46.276983
10350.0  -2057.836729    942.318652     10.136374     46.481971
10400.0  -2075.082318    954.984478     10.227519     46.686761
10450.0  -2092.368625    967.749145     10.318963     46.891351
10500.0  -2109.695179    980.612640     10.410704     47.095740
10550.0  -2127.061510    993.574952     10.502739     47.299927
10600.0  -2144.467147   1006.636069     10.595068     47.503910
10650.0  -2161.911620   1019.795979     10.687689     47.707687
10700.0  -2179.394459   1033.054670     10.780600     47.911258
10750.0  -2196.915193   1046.412131     10.873799     48.114621
10800.0  -2214.473352   1059.868349     10.967285     48.317775
10850.0  -2232.068466   1073.423312     11.061055     48.520718
10900.0  -2249.700063   1087.077009     11.155109     48.723450
10950.0  -2267.367675   1100.829427     11.249444     48.925967
11000.0  -2285.070829   1114.680555     11.344060     49.128271
11050.0  -2302.809057   1128.630381     11.438953     49.330357
11100.0  -2320.581887   1142.678893     11.534123     49.532227
11150.0  -2338.388850   1156.826079     11.629567     49.733877
11200.0  -2356.229474   1171.071928     11.725285     49.935308
11250.0  -2374.103290   1185.416426     11.821273     50.136516
11300.0  -2392.009827   1199.859563     11.917532     50.337502
11350.0  -2409.948614   1214.401326     12.014058     50.538263
11400.0  -2427.919182   1229.041704     12.110851     50.738799
11450.0  -2445.921060   1243.780685     12.207908     50.939108
11500.0  -2463.953777   1258.618256     12.305228     51.139188
11550.0  -2482.016863   1273.554407     12.402809     51.339038
11600.0  -2500.109848   1288.589124     12.500650     51.538657
11650.0  -2518.232261   1303.722396     12.598748     51.738043
11700.0  -2536.383633   1318.954212     12.697103     51.937196
11750.0  -2554.563491   1334.284558     12.795711     52.136113
11800.0  -2572.771367   1349.713425     12.894573     52.334794
11850.0  -2591.006790   1365.240798     12.993685     52.533236
11900.0  -2609.269290   1380.866668     13.093047     52.731439
11950.0  -2627.558395   1396.591020     13.192656     52.929402
12000.0  -2645.873636   1412.413845     13.292511     53.127122
12050.0  -2664.214542   1428.335130     13.392611     53.324598
12100.0  -2682.580643   1444.354862     13.492952     53.521830
12150.0  -2700.971468   1460.473031     13.593535     53.718815
12200.0  -2719.386548   1476.689624     13.694357     53.915553
12250.0  -2737.825411   1493.004629     13.795416     54.112042
12300.0  -2756.287588   1509.418035     13.896710     54.308280
12350.0  -2774.772608   1525.929829     13.998239     54.504267
12400.0  -2793.280000   1542.540000     14.100000     54.700000
12450.0  -2811.809290   1559.248547     14.201992     54.895479
12500.0  -2830.359989   1576.055514     14.304214     55.090703
12550.0  -2848.931602   1592.960959     14.406668     55.285672
12600.0  -2867.523636   1609.964937     14.509352     55.480384
12650.0  -2886.135597   1627.067504     14.612268     55.674840
12700.0  -2904.766990   1644.268716     14.715414     55.869039
12750.0  -2923.417323   1661.568629     14.818792     56.062980
12800.0  -2942.086100   1678.967301     14.922401     56.256664
12850.0  -2960.772829   1696.464785     15.026241     56.450088
12900.0  -2979.477015   1714.061140     15.130313     56.643254
12950.0  -2998.198165   1731.756421     15.234617     56.836159
13000.0  -3016.935785   1749.550683     15.339153     57.028805
13050.0  -3035.689380   1767.443984     15.443920     57.221190
13100.0  -3054.458457   1785.436379     15.548920     57.413314
13150.0  -3073.242523   1803.527924     15.654151     57.605176
13200.0  -3092.041082   1821.718676     15.759615     57.796776
13250.0  -3110.853643   1840.008690     15.865311     57.988113
13300.0  -3129.679709   1858.398024     15.971239     58.179187
13350.0  -3148.518788   1876.886732     16.077400     58.369997
13400.0  -3167.370386   1895.474871     16.183794     58.560543
13450.0  -3186.234009   1914.162497     16.290420     58.750824
13500.0  -3205.109164   1932.949666     16.397280     58.940839
13550.0  -3223.995355   1951.836435     16.504372     59.130589
13600.0  -3242.892089   1970.822859     16.611697     59.320073
13650.0  -3261.798874   1989.908994     16.719256     59.509289
13700.0  -3280.715213   2009.094898     16.827048     59.698239
13750.0  -3299.640615   2028.380625     16.935073     59.886920
13800.0  -3318.574576   2047.766239     17.043332     60.075333
13850.0  -3337.516289   2067.252088     17.151826     60.263476
13900.0  -3356.464546   2086.838884     17.260562     60.451346
13950.0  -3375.418113   2106.527368     17.369545     60.638939
14000.0  -3394.375756   2126.318279     17.478779     60.826253
14050.0  -3413.336242   2146.212355     17.588271     61.013284
14100.0  -3432.298335   2166.210336     17.698026     61.200030
14150.0  -3451.260803   2186.312962     17.808050     61.386486
14200.0  -3470.222411   2206.520970     17.918347     61.572651
14250.0  -3489.181925   2226.835100     18.028923     61.758520
14300.0  -3508.138112   2247.256092     18.139785     61.944090
14350.0  -3527.089737   2267.784684     18.250936     62.129359
14400.0  -3546.035567   2288.421616     18.362383     62.314323
14450.0  -3564.974367   2309.167627     18.474131     62.498979
14500.0  -3583.904903   2330.023455     18.586185     62.683324
14550.0  -3602.825942   2350.989840     18.698551     62.867355
14600.0  -3621.736250   2372.067521     18.811235     63.051068
14650.0  -3640.634592   2393.257238     18.924241     63.234460
14700.0  -3659.519735   2414.559728     19.037575     63.417529
14750.0  -3678.390445   2435.975732     19.151243     63.600270
14800.0  -3697.245487   2457.505989     19.265251     63.782682
14850.0  -3716.083628   2479.151237     19.379602     63.964760
14900.0  -3734.903634   2500.912216     19.494304     64.146501
14950.0  -3753.704271   2522.789664     19.609361     64.327903
