#Lambda        Dielectric Constant          Refractive Index
# [nm]        [Real]        [Imag]        [Real]        [Imag]
   10.0      1.027136      0.000000      1.011830      0.000000
   15.0      1.006712      0.005322      1.002844      0.001699
   20.0      0.977108      0.009308      0.988536      0.004693
   25.0      0.939134      0.012243      0.969252      0.006489
   30.0      0.893599      0.014707      0.945337      0.007779
   35.0      0.841314      0.017277      0.917138      0.009252
   40.0      0.783090      0.020532      0.885000      0.011600
   45.0      0.719255      0.024738      0.848648      0.015046
   50.0      0.648211      0.028910      0.805318      0.017949
   55.0      0.568484      0.032098      0.752855      0.019616
   60.0      0.481008      0.034730      0.694015      0.025019
   65.0      0.387022      0.037314      0.628208      0.036052
   70.0      0.286564      0.039294      0.536550      0.036621
   75.0      0.178791      0.040089      0.405100      0.025347
   80.0      0.060527      0.040093      0.258000      0.077700
   85.0     -0.070635      0.040046      0.128083      0.252024
   90.0     -0.211689      0.041101      0.044877      0.461309
   95.0     -0.359390      0.044160      0.024645      0.610593
  100.0     -0.514956      0.048720      0.033884      0.718453
  105.0     -0.680360      0.054430      0.036275      0.822876
  110.0     -0.856136      0.062960      0.033993      0.925948
  115.0     -1.042137      0.075764      0.036145      1.022348
  120.0     -1.236940      0.091413      0.041071      1.113038
  125.0     -1.438159      0.108156      0.045324      1.199856
  130.0     -1.640844      0.125847      0.049086      1.281869
  135.0     -1.842118      0.144763      0.053219      1.358447
  140.0     -2.049953      0.165261      0.057666      1.432953
  145.0     -2.272870      0.187648      0.062199      1.508841
  150.0     -2.510728      0.211932      0.066816      1.585946
  155.0     -2.761185      0.238085      0.071570      1.663258
  160.0     -3.021748      0.266220      0.076500      1.740000
  165.0     -3.288429      0.296359      0.081629      1.815156
  170.0     -3.551414      0.328001      0.086931      1.886523
  175.0     -3.805041      0.360740      0.092359      1.952970
  180.0     -4.066083      0.395067      0.097842      2.018836
  185.0     -4.351374      0.431625      0.103342      2.088409
  190.0     -4.655557      0.470781      0.108976      2.160294
  195.0     -4.968589      0.512777      0.114880      2.231943
  200.0     -5.283888      0.557635      0.121121      2.301891
  205.0     -5.597604      0.605040      0.127672      2.369379
  210.0     -5.913355      0.653560      0.134187      2.435400
  215.0     -6.236483      0.702445      0.140437      2.501266
  220.0     -6.571743      0.754780      0.146970      2.567814
  225.0     -6.922455      0.813513      0.154318      2.635554
  230.0     -7.286777      0.877193      0.162182      2.704171
  235.0     -7.659927      0.943427      0.170116      2.772838
  240.0     -8.030532      1.010452      0.177936      2.839494
  245.0     -8.391277      1.077123      0.185540      2.902805
  250.0     -8.757680      1.144144      0.192904      2.965574
  255.0     -9.145340      1.212819      0.200094      3.030637
  260.0     -9.547353      1.284991      0.207471      3.096818
  265.0     -9.954171      1.362146      0.215361      3.162435
  270.0    -10.368168      1.443793      0.223645      3.227797
  275.0    -10.793518      1.529000      0.232117      3.293539
  280.0    -11.229682      1.617057      0.240660      3.359614
  285.0    -11.672411      1.707437      0.249226      3.425453
  290.0    -12.107331      1.800137      0.257967      3.489073
  295.0    -12.526262      1.895247      0.266986      3.549349
  300.0    -12.955924      1.992720      0.276000      3.610000
  305.0    -13.420753      2.093061      0.284817      3.674437
  310.0    -13.901164      2.199120      0.294000      3.740000
  315.0    -14.375406      2.312729      0.304004      3.803692
  320.0    -14.857096      2.429296      0.314087      3.867248
  325.0    -15.360464      2.544875      0.323580      3.932537
  330.0    -15.866838      2.664514      0.333295      3.997249
  335.0    -16.355918      2.792670      0.344002      4.058863
  340.0    -16.833800      2.922428      0.354808      4.118211
  345.0    -17.316957      3.048065      0.364846      4.177362
  350.0    -17.836975      3.180000      0.375000      4.240000
  355.0    -18.410837      3.327317      0.386159      4.308071
  360.0    -18.981996      3.477618      0.397467      4.374963
  365.0    -19.498258      3.618735      0.408044      4.434590
  370.0    -19.998356      3.760916      0.418661      4.491515
  375.0    -20.531289      3.916128      0.430182      4.551477
  380.0    -21.096184      4.080801      0.442191      4.614263
  385.0    -21.678520      4.248637      0.454103      4.678098
  390.0    -22.259049      4.417954      0.465942      4.740917
  395.0    -22.823158      4.588710      0.477872      4.801213
  400.0    -23.379500      4.762800      0.490000      4.860000
  405.0    -23.942570      4.942122      0.502367      4.918867
  410.0    -24.526954      5.126634      0.514809      4.979184
  415.0    -25.142052      5.315740      0.527162      5.041782
  420.0    -25.776420      5.508564      0.539457      5.105548
  425.0    -26.412996      5.704270      0.551787      5.168851
  430.0    -27.033096      5.902466      0.564307      5.229918
  435.0    -27.628403      6.103838      0.577164      5.287963
  440.0    -28.233688      6.312950      0.590415      5.346284
  445.0    -28.879820      6.533383      0.604064      5.407822
  450.0    -29.538976      6.760920      0.618000      5.470000
  455.0    -30.181187      6.990922      0.632095      5.530010
  460.0    -30.826589      7.224855      0.646269      5.589646
  465.0    -31.499772      7.465137      0.660486      5.651133
  470.0    -32.193037      7.711872      0.674829      5.713808
  475.0    -32.891663      7.964584      0.689402      5.776382
  480.0    -33.585133      8.222769      0.704264      5.837939
  485.0    -34.269175      8.487161      0.719507      5.898109
  490.0    -34.960305      8.763459      0.735412      5.958325
  495.0    -35.670781      9.055041      0.752117      6.019666
  500.0    -36.375039      9.351040      0.769000      6.080000
  505.0    -37.053974      9.642595      0.785534      6.137710
  510.0    -37.752133      9.943114      0.802322      6.196444
  515.0    -38.511192     10.266439      0.820034      6.259634
  520.0    -39.297680     10.605892      0.838459      6.324569
  525.0    -40.065831     10.951268      0.857238      6.387548
  530.0    -40.795834     11.298775      0.876289      6.447051
  535.0    -41.490486     11.649107      0.895643      6.503341
  540.0    -42.217060     12.014482      0.915506      6.561619
  545.0    -43.026299     12.405908      0.936157      6.625836
  550.0    -43.838336     12.818040      0.958000      6.690000
  555.0    -44.575573     13.241739      0.981135      6.748227
  560.0    -45.300088     13.669044      1.004330      6.805011
  565.0    -46.079631     14.094892      1.026517      6.865323
  570.0    -46.864965     14.524638      1.048610      6.925671
  575.0    -47.597564     14.965662      1.071758      6.981895
  580.0    -48.298717     15.423022      1.096075      7.035636
  585.0    -49.005649     15.901025      1.121438      7.089660
  590.0    -49.739500     16.403301      1.147822      7.145420
  595.0    -50.506285     16.924497      1.174769      7.203212
  600.0    -51.267600     17.424000      1.200000      7.260000
  605.0    -51.991731     17.874466      1.222056      7.313356
  610.0    -52.718132     18.336888      1.244572      7.366602
  615.0    -53.487704     18.873076      1.271203      7.423165
  620.0    -54.275956     19.459757      1.300587      7.481142
  625.0    -55.046599     20.055293      1.330306      7.537661
  630.0    -55.781553     20.629651      1.358728      7.591287
  635.0    -56.473810     21.167363      1.385048      7.641481
  640.0    -57.142454     21.699612      1.410991      7.689833
  645.0    -57.814575     22.267179      1.438767      7.738528
  650.0    -58.523200     22.902600      1.470000      7.790000
  655.0    -59.287642     23.614340      1.504978      7.845542
  660.0    -60.066425     24.322844      1.539232      7.901630
  665.0    -60.819016     24.961607      1.569075      7.954949
  670.0    -61.569427     25.604352      1.598713      8.007829
  675.0    -62.344649     26.333930      1.632899      8.062919
  680.0    -63.119028     27.129469      1.670692      8.118485
  685.0    -63.856261     27.948228      1.709940      8.171898
  690.0    -64.530089     28.763711      1.749354      8.221335
  695.0    -65.131096     29.568419      1.788561      8.266200
  700.0    -65.707200     30.414600      1.830000      8.310000
  705.0    -66.308311     31.351069      1.875883      8.356286
  710.0    -66.934983     32.353158      1.924702      8.404689
  715.0    -67.566302     33.388850      1.974790      8.453558
  720.0    -68.144833     34.470203      2.027561      8.500043
  725.0    -68.605896     35.619856      2.085146      8.541083
  730.0    -68.892337     36.858695      2.149459      8.573986
  735.0    -68.970659     38.176101      2.220404      8.596870
  740.0    -68.894457     39.437179      2.290074      8.610737
  745.0    -68.734655     40.507154      2.350339      8.617521
  750.0    -68.544400     41.376000      2.400000      8.620000
  755.0    -68.356973     42.089619      2.441139      8.620677
  760.0    -68.143969     42.792873      2.482030      8.620113
  765.0    -67.865649     43.607184      2.529863      8.617912
  770.0    -67.498607     44.461245      2.581285      8.611795
  775.0    -67.027526     45.252040      2.631116      8.599446
  780.0    -66.453094     45.942439      2.677404      8.580273
  785.0    -65.785236     46.512277      2.718941      8.554385
  790.0    -65.054817     46.943372      2.754262      8.522962
  795.0    -64.297564     47.218241      2.781854      8.487441
  800.0    -63.547718     47.320228      2.800270      8.449213
  805.0    -62.840778     47.241102      2.808464      8.409925
  810.0    -62.218774     47.005493      2.806926      8.372292
  815.0    -61.736135     46.647202      2.796383      8.339897
  820.0    -61.490355     46.203834      2.776982      8.318728
  825.0    -61.520247     45.708314      2.749686      8.311505
  830.0    -61.586842     45.171023      2.719302      8.305479
  835.0    -61.456451     44.600707      2.690490      8.288161
  840.0    -61.194293     44.022106      2.663470      8.263564
  845.0    -60.930545     43.458133      2.637196      8.239192
  850.0    -60.756300     42.908400      2.610000      8.220000
  855.0    -60.723892     42.350684      2.579694      8.208460
  860.0    -60.769692     41.698726      2.542619      8.199664
  865.0    -60.831416     40.879430      2.495838      8.189049
  870.0    -60.968134     39.936384      2.440760      8.180799
  875.0    -61.254005     38.935299      2.379786      8.180311
  880.0    -61.702194     37.913703      2.314920      8.189082
  885.0    -62.303464     36.901560      2.248165      8.207190
  890.0    -63.019966     35.926763      2.181908      8.232936
  895.0    -63.810166     35.016349      2.118529      8.264331
  900.0    -64.646400     34.196000      2.060000      8.300000
  905.0    -65.503841     33.470309      2.006994      8.338451
  910.0    -66.355145     32.760864      1.955385      8.377101
  915.0    -67.186381     31.979976      1.900356      8.414046
  920.0    -68.039797     31.085854      1.839116      8.451189
  925.0    -68.981241     30.076619      1.770906      8.492250
  930.0    -70.114784     29.064151      1.701063      8.544422
  935.0    -71.519109     28.168047      1.635633      8.613462
  940.0    -73.133128     27.425027      1.577407      8.695919
  945.0    -74.864333     26.851111      1.528301      8.786281
  950.0    -76.634300     26.462400      1.490000      8.880000
  955.0    -78.371453     26.257252      1.463039      8.972868
  960.0    -80.017527     26.162974      1.443585      9.061079
  965.0    -81.531766     26.104795      1.427536      9.141837
  970.0    -82.930155     26.070680      1.414067      9.215989
  975.0    -84.239694     26.060692      1.402985      9.285086
  980.0    -85.474724     26.060552      1.393348      9.349858
  985.0    -86.646516     26.052876      1.384051      9.410843
  990.0    -87.766737     26.022191      1.374097      9.468644
  995.0    -88.853950     25.957775      1.362723      9.524233
 1000.0    -89.953900     25.866000      1.350000      9.580000
 1005.0    -91.109169     25.757121      1.336238      9.638176
 1010.0    -92.322505     25.639835      1.321876      9.698932
 1015.0    -93.586338     25.522122      1.307366      9.761903
 1020.0    -94.891669     25.410664      1.293095      9.826649
 1025.0    -96.229095     25.312110      1.279450      9.892709
 1030.0    -97.589019     25.234281      1.266881      9.959615
 1035.0    -98.962748     25.183866      1.255776     10.026942
 1040.0   -100.345413     25.161844      1.246203     10.094446
 1045.0   -101.733497     25.167203      1.238120     10.161946
 1050.0   -103.125082     25.196687      1.231362     10.229339
 1055.0   -104.518559     25.246624      1.225738     10.296534
 1060.0   -105.911945     25.313925      1.221091     10.363424
 1065.0   -107.303169     25.395581      1.217267     10.429897
 1070.0   -108.690172     25.488311      1.214099     10.495842
 1075.0   -110.070982     25.588896      1.211423     10.561151
 1080.0   -111.443964     25.694634      1.209099     10.625737
 1085.0   -112.807974     25.803484      1.207021     10.689539
 1090.0   -114.163498     25.915523      1.205183     10.752588
 1095.0   -115.511382     26.031294      1.203604     10.814936
 1100.0   -116.852283     26.151099      1.202290     10.876622
 1105.0   -118.186819     26.275187      1.201244     10.937685
 1110.0   -119.515634     26.403852      1.200472     10.998165
 1115.0   -120.839397     26.537415      1.199982     11.058103
 1120.0   -122.158865     26.676272      1.199783     11.117545
 1125.0   -123.474714     26.820745      1.199882     11.176532
 1130.0   -124.787223     26.970786      1.200273     11.235087
 1135.0   -126.096316     27.126021      1.200936     11.293215
 1140.0   -127.400896     27.285135      1.201819     11.350875
 1145.0   -128.699659     27.446617      1.202860     11.408014
 1150.0   -129.991484     27.609109      1.204003     11.464588
 1155.0   -131.275265     27.771278      1.205195     11.520554
 1160.0   -132.549759     27.931731      1.206378     11.575863
 1165.0   -133.813779     28.089083      1.207497     11.630469
 1170.0   -135.066491     28.242023      1.208497     11.684340
 1175.0   -136.306830     28.389199      1.209323     11.737433
 1180.0   -137.532452     28.529006      1.209914     11.789656
 1185.0   -138.745349     28.660685      1.210227     11.841092
 1190.0   -139.966126     28.787109      1.210303     11.892582
 1195.0   -141.220486     28.912143      1.210204     11.945177
 1200.0   -142.535900     29.040000      1.210000     12.000000
 1205.0   -143.932808     29.174135      1.209757     12.057887
 1210.0   -145.401747     29.314632      1.209514     12.118455
 1215.0   -146.925813     29.460740      1.209306     12.181020
 1220.0   -148.488228     29.611731      1.209168     12.244901
 1225.0   -150.072236     29.766882      1.209134     12.309420
 1230.0   -151.661046     29.925464      1.209238     12.373897
 1235.0   -153.237863     30.086746      1.209515     12.437650
 1240.0   -154.785900     30.250000      1.210000     12.500000
 1245.0   -156.292047     30.414611      1.210717     12.560414
 1250.0   -157.757891     30.580423      1.211653     12.618957
 1255.0   -159.188692     30.747396      1.212786     12.675839
 1260.0   -160.589716     30.915490      1.214094     12.731274
 1265.0   -161.966225     31.084663      1.215553     12.785473
 1270.0   -163.323472     31.254874      1.217142     12.838647
 1275.0   -164.666715     31.426083      1.218838     12.891009
 1280.0   -166.001256     31.598248      1.220618     12.942772
 1285.0   -167.332368     31.771327      1.222460     12.994148
 1290.0   -168.665165     31.945286      1.224342     13.045344
 1295.0   -170.004869     32.120087      1.226242     13.096570
 1300.0   -171.357296     32.295662      1.228134     13.148059
 1305.0   -172.727712     32.471970      1.229997     13.200025
 1310.0   -174.118579     32.649105      1.231822     13.252567
 1315.0   -175.530957     32.827226      1.233611     13.305731
 1320.0   -176.963105     33.006626      1.235379     13.359450
 1325.0   -178.412727     33.187627      1.237147     13.413637
 1330.0   -179.878124     33.370519      1.238930     13.468226
 1335.0   -181.357704     33.555589      1.240744     13.523158
 1340.0   -182.849720     33.743131      1.242605     13.578366
 1345.0   -184.352393     33.933441      1.244530     13.633782
 1350.0   -185.863977     34.126812      1.246535     13.689340
 1355.0   -187.382741     34.323538      1.248636     13.744974
 1360.0   -188.906979     34.523911      1.250849     13.800619
 1365.0   -190.434956     34.728225      1.253191     13.856209
 1370.0   -191.964810     34.936777      1.255678     13.911674
 1375.0   -193.494774     35.149860      1.258328     13.966946
 1380.0   -195.023593     35.367758      1.261153     14.021976
 1385.0   -196.550713     35.590744      1.264165     14.076741
 1390.0   -198.077865     35.819048      1.267363     14.131300
 1395.0   -199.607282     36.052893      1.270746     14.185728
 1400.0   -201.140926     36.292504      1.274314     14.240092
 1405.0   -202.680711     36.538109      1.278065     14.294458
 1410.0   -204.228621     36.789933      1.281999     14.348892
 1415.0   -205.786655     37.048203      1.286114     14.403462
 1420.0   -207.356791     37.313144      1.290409     14.458236
 1425.0   -208.941003     37.584982      1.294884     14.513281
 1430.0   -210.541279     37.863946      1.299537     14.568664
 1435.0   -212.159601     38.150261      1.304368     14.624453
 1440.0   -213.797928     38.444147      1.309375     14.680713
 1445.0   -215.458233     38.745828      1.314558     14.737512
 1450.0   -217.142578     39.055555      1.319917     14.794921
 1455.0   -218.852965     39.373559      1.325450     14.853007
 1460.0   -220.591067     39.699978      1.331155     14.911827
 1465.0   -222.357614     40.034676      1.337023     14.971403
 1470.0   -224.149895     40.376525      1.343025     15.031637
 1475.0   -225.964394     40.724163      1.349127     15.092401
 1480.0   -227.797833     41.076298      1.355296     15.153575
 1485.0   -229.646974     41.431649      1.361501     15.215042
 1490.0   -231.508520     41.788917      1.367708     15.276682
 1495.0   -233.379160     42.146800      1.373885     15.338375
 1500.0   -235.255600     42.504000      1.380000     15.400000
 1505.0   -237.134862     42.859549      1.386029     15.461452
 1510.0   -239.015210     43.213783      1.391986     15.522681
 1515.0   -240.895222     43.567366      1.397897     15.583649
 1520.0   -242.773474     43.920963      1.403785     15.644318
 1525.0   -244.648545     44.275237      1.409675     15.704652
 1530.0   -246.519013     44.630852      1.415591     15.764614
 1535.0   -248.383455     44.988472      1.421557     15.824167
 1540.0   -250.240448     45.348760      1.427598     15.883274
 1545.0   -252.088571     45.712382      1.433737     15.941897
 1550.0   -253.926400     46.080000      1.440000     16.000000
 1555.0   -255.752830     46.452133      1.446405     16.057554
 1560.0   -257.568024     46.828715      1.452949     16.114570
 1565.0   -259.372460     47.209533      1.459624     16.171066
 1570.0   -261.166617     47.594374      1.466423     16.227059
 1575.0   -262.950974     47.983026      1.473337     16.282568
 1580.0   -264.726011     48.375276      1.480358     16.337613
 1585.0   -266.492206     48.770912      1.487478     16.392212
 1590.0   -268.250037     49.169721      1.494689     16.446383
 1595.0   -269.999984     49.571491      1.501983     16.500144
 1600.0   -271.742527     49.976010      1.509353     16.553515
 1605.0   -273.478144     50.383064      1.516789     16.606513
 1610.0   -275.207314     50.792442      1.524284     16.659158
 1615.0   -276.930515     51.203930      1.531830     16.711467
 1620.0   -278.648228     51.617317      1.539419     16.763460
 1625.0   -280.360931     52.032390      1.547043     16.815154
 1630.0   -282.069101     52.448935      1.554693     16.866569
 1635.0   -283.773215     52.866739      1.562362     16.917723
 1640.0   -285.473766     53.285597      1.570041     16.968634
 1645.0   -287.171237     53.705299      1.577724     17.019321
 1650.0   -288.866054     54.125601      1.585400     17.069802
 1655.0   -290.558719     54.546304      1.593062     17.120096
 1660.0   -292.250089     54.967428      1.600709     17.170227
 1665.0   -293.941143     55.389069      1.608340     17.220222
 1670.0   -295.633006     55.811412      1.615957     17.270108
 1675.0   -297.326827     56.234656      1.623562     17.319916
 1680.0   -299.023721     56.658981      1.631157     17.369673
 1685.0   -300.724796     57.084562      1.638745     17.419409
 1690.0   -302.431169     57.511580      1.646327     17.469151
 1695.0   -304.143961     57.940216      1.653905     17.518928
 1700.0   -305.864289     58.370650      1.661481     17.568769
 1705.0   -307.593268     58.803063      1.669057     17.618702
 1710.0   -309.332015     59.237635      1.676636     17.668756
 1715.0   -311.081649     59.674546      1.684218     17.718959
 1720.0   -312.843286     60.113977      1.691806     17.769340
 1725.0   -314.618044     60.556108      1.699402     17.819927
 1730.0   -316.407039     61.001120      1.707008     17.870748
 1735.0   -318.211389     61.449193      1.714626     17.921833
 1740.0   -320.032209     61.900507      1.722257     17.973210
 1745.0   -321.870616     62.355242      1.729905     18.024907
 1750.0   -323.727735     62.813579      1.737570     18.076953
 1755.0   -325.604685     63.275700      1.745255     18.129377
 1760.0   -327.502552     63.741781      1.752961     18.182206
 1765.0   -329.422444     64.212001      1.760691     18.235469
 1770.0   -331.365599     64.686556      1.768446     18.289197
 1775.0   -333.332812     65.165584      1.776228     18.343410
 1780.0   -335.322970     65.648981      1.784038     18.398080
 1785.0   -337.334437     66.136575      1.791875     18.453166
 1790.0   -339.365395     66.628170      1.799739     18.508621
 1795.0   -341.413994     67.123567      1.807628     18.564398
 1800.0   -343.478431     67.622572      1.815543     18.620450
 1805.0   -345.556913     68.124993      1.823482     18.676733
 1810.0   -347.647634     68.630636      1.831446     18.733199
 1815.0   -349.748784     69.139307      1.839433     18.789803
 1820.0   -351.858557     69.650812      1.847444     18.846499
 1825.0   -353.975149     70.164957      1.855477     18.903241
 1830.0   -356.096754     70.681548      1.863533     18.959982
 1835.0   -358.221565     71.200392      1.871610     19.016676
 1840.0   -360.347778     71.721294      1.879708     19.073278
 1845.0   -362.473586     72.244061      1.887827     19.129742
 1850.0   -364.597185     72.768500      1.895966     19.186021
 1855.0   -366.716767     73.294416      1.904125     19.242069
 1860.0   -368.830527     73.821614      1.912302     19.297840
 1865.0   -370.936658     74.349902      1.920497     19.353288
 1870.0   -373.033360     74.879085      1.928711     19.408368
 1875.0   -375.118827     75.408971      1.936942     19.463032
 1880.0   -377.191236     75.939363      1.945191     19.517235
 1885.0   -379.248776     76.470067      1.953456     19.570930
 1890.0   -381.289711     77.000898      1.961736     19.624074
 1895.0   -383.312255     77.531664      1.970032     19.676620
 1900.0   -385.314337     78.062138      1.978342     19.728515
 1905.0   -387.294104     78.592121      1.986666     19.779713
 1910.0   -389.250855     79.121556      1.995005     19.830195
 1915.0   -391.184896     79.650514      2.003358     19.879969
 1920.0   -393.099412     80.179423      2.011729     19.929114
 1925.0   -394.998191     80.708790      2.020119     19.977725
 1930.0   -396.884569     81.239062      2.028532     20.025887
 1935.0   -398.761799     81.770678      2.036969     20.073680
 1940.0   -400.633255     82.304090      2.045434     20.121190
 1945.0   -402.502334     82.839755      2.053928     20.168502
 1950.0   -404.372400     83.378125      2.062454     20.215700
 1955.0   -406.246810     83.919650      2.071014     20.262869
 1960.0   -408.128932     84.464783      2.079611     20.310093
 1965.0   -410.022133     85.013976      2.088247     20.357456
 1970.0   -411.929779     85.567682      2.096925     20.405043
 1975.0   -413.855236     86.126353      2.105647     20.452938
 1980.0   -415.801871     86.690440      2.114415     20.501227
 1985.0   -417.773048     87.260396      2.123232     20.549993
 1990.0   -419.772135     87.836673      2.132100     20.599321
 1995.0   -421.802497     88.419724      2.141022     20.649295
 2000.0   -423.867500     89.010000      2.150000     20.700000
 2005.0   -425.969332     89.607776      2.159035     20.751491
 2010.0   -428.105467     90.212614      2.168123     20.803707
 2015.0   -430.272198     90.823900      2.177259     20.856557
 2020.0   -432.465819     91.441017      2.186437     20.909951
 2025.0   -434.682624     92.063351      2.195651     20.963797
 2030.0   -436.918914     92.690287      2.204895     21.018006
 2035.0   -439.170984     93.321211      2.214165     21.072487
 2040.0   -441.435106     93.955502      2.223454     21.127148
 2045.0   -443.707567     94.592545      2.232757     21.181899
 2050.0   -445.984752     95.231740      2.242069     21.236652
 2055.0   -448.262979     95.872476      2.251384     21.291316
 2060.0   -450.538207     96.514080      2.260696     21.345792
 2065.0   -452.806729     97.155937      2.269999     21.399991
 2070.0   -455.066537     97.797719      2.279291     21.453862
 2075.0   -457.316475     98.439239      2.288570     21.507378
 2080.0   -459.557088     99.080597      2.297837     21.560551
 2085.0   -461.789255     99.721951      2.307093     21.613402
 2090.0   -464.013494    100.363397      2.316338     21.665944
 2095.0   -466.230258    101.005020      2.325575     21.718187
 2100.0   -468.440097    101.646921      2.334803     21.770144
 2105.0   -470.643576    102.289205      2.344024     21.821830
 2110.0   -472.841237    102.931971      2.353239     21.873257
 2115.0   -475.033615    103.575318      2.362448     21.924437
 2120.0   -477.221254    104.219348      2.371653     21.975383
 2125.0   -479.404699    104.864161      2.380855     22.026109
 2130.0   -481.584491    105.509856      2.390054     22.076628
 2135.0   -483.761173    106.156534      2.399251     22.126952
 2140.0   -485.935288    106.804295      2.408447     22.177094
 2145.0   -488.107379    107.453240      2.417643     22.227067
 2150.0   -490.277987    108.103468      2.426841     22.276885
 2155.0   -492.447656    108.755080      2.436041     22.326560
 2160.0   -494.616927    109.408177      2.445244     22.376104
 2165.0   -496.786344    110.062858      2.454451     22.425531
 2170.0   -498.956450    110.719224      2.463662     22.474854
 2175.0   -501.127787    111.377375      2.472879     22.524086
 2180.0   -503.300898    112.037411      2.482102     22.573239
 2185.0   -505.476325    112.699432      2.491334     22.622327
 2190.0   -507.654611    113.363539      2.500574     22.671362
 2195.0   -509.836298    114.029832      2.509823     22.720357
 2200.0   -512.021930    114.698412      2.519083     22.769326
 2205.0   -514.212049    115.369378      2.528354     22.818281
 2210.0   -516.407197    116.042830      2.537637     22.867236
 2215.0   -518.607917    116.718869      2.546934     22.916202
 2220.0   -520.814751    117.397596      2.556244     22.965193
 2225.0   -523.028241    118.079110      2.565569     23.014222
 2230.0   -525.248935    118.763512      2.574910     23.063302
 2235.0   -527.477376    119.450902      2.584269     23.112446
 2240.0   -529.714089    120.141379      2.593645     23.161666
 2245.0   -531.959613    120.835042      2.603040     23.210975
 2250.0   -534.214554    121.532001      2.612454     23.260388
 2255.0   -536.479445    122.232354      2.621889     23.309917
 2260.0   -538.754456    122.936146      2.631345     23.359566
 2265.0   -541.039610    123.643402      2.640823     23.409337
 2270.0   -543.334695    124.354111      2.650322     23.459225
 2275.0   -545.639455    125.068255      2.659843     23.509224
 2280.0   -547.953687    125.785824      2.669385     23.559329
 2285.0   -550.277199    126.506811      2.678950     23.609537
 2290.0   -552.609784    127.231206      2.688536     23.659843
 2295.0   -554.951233    127.958998      2.698144     23.710243
 2300.0   -557.301341    128.690176      2.707774     23.760732
 2305.0   -559.659902    129.424731      2.717427     23.811306
 2310.0   -562.026710    130.162654      2.727102     23.861959
 2315.0   -564.401559    130.903934      2.736799     23.912688
 2320.0   -566.784243    131.648561      2.746518     23.963488
 2325.0   -569.174557    132.396525      2.756261     24.014355
 2330.0   -571.572294    133.147816      2.766026     24.065285
 2335.0   -573.977249    133.902424      2.775814     24.116273
 2340.0   -576.389215    134.660339      2.785624     24.167314
 2345.0   -578.807987    135.421552      2.795457     24.218404
 2350.0   -581.233359    136.186051      2.805314     24.269538
 2355.0   -583.665125    136.953827      2.815194     24.320712
 2360.0   -586.103080    137.724870      2.825097     24.371922
 2365.0   -588.547016    138.499170      2.835024     24.423163
 2370.0   -590.996729    139.276718      2.844974     24.474430
 2375.0   -593.452012    140.057503      2.854947     24.525719
 2380.0   -595.912660    140.841514      2.864944     24.577026
 2385.0   -598.378467    141.628742      2.874965     24.628347
 2390.0   -600.849226    142.419177      2.885010     24.679676
 2395.0   -603.324733    143.212810      2.895079     24.731009
 2400.0   -605.804780    144.009629      2.905171     24.782342
 2405.0   -608.289162    144.809625      2.915288     24.833671
 2410.0   -610.777673    145.612788      2.925429     24.884990
 2415.0   -613.270108    146.419109      2.935594     24.936296
 2420.0   -615.766260    147.228576      2.945784     24.987583
 2425.0   -618.265924    148.041180      2.955998     25.038848
 2430.0   -620.768893    148.856910      2.966237     25.090086
 2435.0   -623.274962    149.675758      2.976501     25.141293
 2440.0   -625.783925    150.497713      2.986789     25.192464
 2445.0   -628.295576    151.322765      2.997102     25.243595
 2450.0   -630.809709    152.150904      3.007440     25.294680
 2455.0   -633.326118    152.982119      3.017803     25.345716
 2460.0   -635.844598    153.816401      3.028192     25.396698
 2465.0   -638.364942    154.653740      3.038606     25.447622
 2470.0   -640.886944    155.494127      3.049045     25.498483
 2475.0   -643.410399    156.337550      3.059510     25.549277
 2480.0   -645.935100    157.184000      3.070000     25.600000
 2485.0   -648.460882    158.033468      3.080516     25.650647
 2490.0   -650.987740    158.885949      3.091057     25.701219
 2495.0   -653.515707    159.741440      3.101623     25.751717
 2500.0   -656.044817    160.599938      3.112215     25.802142
 2505.0   -658.575104    161.461438      3.122831     25.852495
 2510.0   -661.106604    162.325938      3.133472     25.902777
 2515.0   -663.639350    163.193434      3.144137     25.952988
 2520.0   -666.173377    164.063922      3.154826     26.003130
 2525.0   -668.708718    164.937399      3.165539     26.053204
 2530.0   -671.245408    165.813862      3.176275     26.103211
 2535.0   -673.783481    166.693306      3.187034     26.153152
 2540.0   -676.322971    167.575729      3.197817     26.203027
 2545.0   -678.863913    168.461127      3.208623     26.252838
 2550.0   -681.406341    169.349497      3.219451     26.302585
 2555.0   -683.950289    170.240834      3.230301     26.352271
 2560.0   -686.495791    171.135136      3.241174     26.401895
 2565.0   -689.042882    172.032399      3.252069     26.451459
 2570.0   -691.591595    172.932619      3.262985     26.500964
 2575.0   -694.141965    173.835794      3.273923     26.550410
 2580.0   -696.694027    174.741919      3.284882     26.599799
 2585.0   -699.247814    175.650991      3.295862     26.649132
 2590.0   -701.803360    176.563006      3.306863     26.698409
 2595.0   -704.360700    177.477962      3.317884     26.747632
 2600.0   -706.919869    178.395854      3.328926     26.796802
 2605.0   -709.480900    179.316679      3.339988     26.845919
 2610.0   -712.043828    180.240434      3.351069     26.894985
 2615.0   -714.608686    181.167115      3.362170     26.944001
 2620.0   -717.175509    182.096719      3.373291     26.992967
 2625.0   -719.744332    183.029242      3.384431     27.041885
 2630.0   -722.315188    183.964680      3.395589     27.090755
 2635.0   -724.888111    184.903030      3.406766     27.139579
 2640.0   -727.463137    185.844289      3.417961     27.188358
 2645.0   -730.040299    186.788453      3.429174     27.237092
 2650.0   -732.619632    187.735519      3.440406     27.285782
 2655.0   -735.201169    188.685483      3.451655     27.334430
 2660.0   -737.784944    189.638342      3.462922     27.383037
 2665.0   -740.370993    190.594092      3.474206     27.431603
 2670.0   -742.959350    191.552729      3.485507     27.480130
 2675.0   -745.550048    192.514251      3.496825     27.528618
 2680.0   -748.143121    193.478653      3.508159     27.577069
 2685.0   -750.738605    194.445933      3.519510     27.625483
 2690.0   -753.336533    195.416086      3.530877     27.673862
 2695.0   -755.936940    196.389110      3.542259     27.722206
 2700.0   -758.539859    197.365000      3.553657     27.770516
 2705.0   -761.145325    198.343754      3.565071     27.818794
 2710.0   -763.753372    199.325367      3.576500     27.867041
 2715.0   -766.364035    200.309837      3.587943     27.915256
 2720.0   -768.977348    201.297159      3.599401     27.963442
 2725.0   -771.593344    202.287330      3.610874     28.011600
 2730.0   -774.212058    203.280348      3.622361     28.059730
 2735.0   -776.833525    204.276208      3.633862     28.107833
 2740.0   -779.457778    205.274906      3.645376     28.155911
 2745.0   -782.084849    206.276438      3.656904     28.203964
 2750.0   -784.714782    207.280806      3.668446     28.251993
 2755.0   -787.347610    208.288007      3.680000     28.300000
 2760.0   -789.983323    209.298006      3.691567     28.347985
 2765.0   -792.621887    210.310752      3.703146     28.395947
 2770.0   -795.263222    211.326163      3.714735     28.443884
 2775.0   -797.907241    212.344150      3.726334     28.491795
 2780.0   -800.553865    213.364632      3.737941     28.539680
 2785.0   -803.203016    214.387528      3.749555     28.587537
 2790.0   -805.854615    215.412755      3.761175     28.635364
 2795.0   -808.508583    216.440232      3.772800     28.683160
 2800.0   -811.164841    217.469875      3.784430     28.730924
 2805.0   -813.823308    218.501602      3.796062     28.778654
 2810.0   -816.483906    219.535332      3.807696     28.826350
 2815.0   -819.146556    220.570982      3.819330     28.874009
 2820.0   -821.811178    221.608470      3.830964     28.921631
 2825.0   -824.477693    222.647713      3.842596     28.969214
 2830.0   -827.146022    223.688629      3.854225     29.016757
 2835.0   -829.816085    224.731136      3.865850     29.064259
 2840.0   -832.487803    225.775152      3.877470     29.111718
 2845.0   -835.161098    226.820594      3.889084     29.159133
 2850.0   -837.835889    227.867381      3.900691     29.206503
 2855.0   -840.512098    228.915429      3.912290     29.253826
 2860.0   -843.189644    229.964657      3.923879     29.301101
 2865.0   -845.868449    231.014982      3.935457     29.348327
 2870.0   -848.548434    232.066323      3.947024     29.395502
 2875.0   -851.229519    233.118597      3.958578     29.442626
 2880.0   -853.911626    234.171721      3.970118     29.489696
 2885.0   -856.594674    235.225613      3.981643     29.536711
 2890.0   -859.278585    236.280191      3.993151     29.583671
 2895.0   -861.963279    237.335373      4.004643     29.630574
 2900.0   -864.648677    238.391077      4.016116     29.677418
 2905.0   -867.334699    239.447221      4.027569     29.724203
 2910.0   -870.021267    240.503721      4.039002     29.770926
 2915.0   -872.708301    241.560496      4.050413     29.817587
 2920.0   -875.395723    242.617463      4.061802     29.864184
 2925.0   -878.083452    243.674540      4.073167     29.910716
 2930.0   -880.771409    244.731646      4.084506     29.957182
 2935.0   -883.459516    245.788698      4.095819     30.003580
 2940.0   -886.147692    246.845613      4.107105     30.049909
 2945.0   -888.835858    247.902309      4.118362     30.096168
 2950.0   -891.523936    248.958704      4.129590     30.142355
 2955.0   -894.211846    250.014716      4.140787     30.188470
 2960.0   -896.899509    251.070262      4.151953     30.234510
 2965.0   -899.586845    252.125260      4.163086     30.280475
 2970.0   -902.273776    253.179628      4.174184     30.326362
 2975.0   -904.960222    254.233284      4.185248     30.372171
 2980.0   -907.646103    255.286146      4.196275     30.417901
 2985.0   -910.331341    256.338130      4.207265     30.463550
 2990.0   -913.015856    257.389156      4.218217     30.509117
 2995.0   -915.699568    258.439141      4.229129     30.554601
 3000.0   -918.382400    259.488000      4.240000     30.600000
 3050.0   -945.234298    269.927467      4.346582     31.050520
 3100.0   -972.447500    280.350000      4.450000     31.500000
 3150.0  -1000.386798    290.868538      4.551488     31.954525
 3200.0  -1029.047315    301.630886      4.653143     32.414252
 3250.0  -1058.331163    312.795764      4.757312     32.877849
 3300.0  -1088.138072    324.530695      4.866466     33.343959
 3350.0  -1118.378104    336.941206      4.982203     33.811301
 3400.0  -1149.005042    349.876040      5.102505     34.278913
 3450.0  -1179.982229    363.105979      5.224265     34.745872
 3500.0  -1211.267542    376.346742      5.343626     35.211088
 3550.0  -1242.827208    389.353823      5.457265     35.673663
 3600.0  -1274.666326    402.096863      5.564733     36.133626
 3650.0  -1306.805836    414.634488      5.666773     36.591392
 3700.0  -1339.291160    427.167104      5.766033     37.047977
 3750.0  -1372.175034    439.926591      5.865581     37.504556
 3800.0  -1405.514963    453.128953      5.968266     37.962329
 3850.0  -1439.340513    466.943540      6.076327     38.422052
 3900.0  -1473.564727    481.368966      6.189772     38.882683
 3950.0  -1508.065304    496.355155      6.307976     39.342642
 4000.0  -1542.695100    511.828000      6.430000     39.800000
 4050.0  -1577.356453    527.683210      6.554517     40.253355
 4100.0  -1612.174458    543.719781      6.678959     40.703762
 4150.0  -1647.297024    559.745092      6.800883     41.152596
 4200.0  -1682.740546    575.696759      6.919578     41.600059
 4250.0  -1718.473207    591.560532      7.034973     42.045922
 4300.0  -1754.401849    607.384456      7.147828     42.489417
 4350.0  -1790.422578    623.228241      7.259057     42.929679
 4400.0  -1826.449893    639.135979      7.369361     43.366010
 4450.0  -1862.398374    655.149381      7.479413     43.797710
 4500.0  -1898.164543    671.316272      7.589989     44.223909
 4550.0  -1933.702130    687.676836      7.701672     44.644285
 4600.0  -1969.211760    704.234597      7.814159     45.060865
 4650.0  -2004.966607    720.982533      7.926889     45.476372
 4700.0  -2041.283151    737.908097      8.039167     45.893950
 4750.0  -2078.466423    755.000118      8.150328     46.316627
 4800.0  -2116.732349    772.258440      8.259977     46.746551
 4850.0  -2156.352904    789.676020      8.367550     47.186425
 4900.0  -2197.913355    807.207242      8.471548     47.642056
 4950.0  -2241.737643    824.838650      8.571254     48.116662
 5000.0  -2286.791100    842.724000      8.670000     48.600000
 5050.0  -2331.877138    861.029421      8.771529     49.080216
 5100.0  -2376.510109    879.803335      8.877167     49.552483
 5150.0  -2420.478084    899.052942      8.987350     50.014681
 5200.0  -2463.953078    918.738267      9.101369     50.468494
 5250.0  -2507.177506    938.810620      9.218307     50.916304
 5300.0  -2550.291428    959.233626      9.337547     51.359478
 5350.0  -2593.415683    979.973467      9.458534     51.799194
 5400.0  -2636.696582   1000.994240      9.580643     52.236882
 5450.0  -2680.286919   1022.258526      9.703225     52.674036
 5500.0  -2724.339960   1043.724939      9.825597     53.112150
 5550.0  -2768.980888   1065.368851      9.947271     53.552456
 5600.0  -2814.222088   1087.236643     10.068582     53.995136
 5650.0  -2860.044883   1109.394161     10.190090     54.440081
 5700.0  -2906.419150   1131.914088     10.312435     54.887076
 5750.0  -2953.312664   1154.870367     10.436272     55.335888
 5800.0  -3000.696245   1178.335130     10.562235     55.786310
 5850.0  -3048.541261   1202.380173     10.690953     56.238141
 5900.0  -3096.818240   1227.077767     10.823063     56.691173
 5950.0  -3145.497580   1252.500279     10.959200     57.145195
 6000.0  -3194.550000   1278.720000     11.100000     57.600000
 6050.0  -3243.923585   1305.770432     11.245794     58.055163
 6100.0  -3293.475573   1333.530013     11.395699     58.509380
 6150.0  -3343.040849   1361.838592     11.548528     58.961131
 6200.0  -3392.455738   1390.536735     11.703101     59.408907
 6250.0  -3441.585471   1419.478664     11.858339     59.851469
 6300.0  -3490.409453   1448.572498     12.013574     60.288637
 6350.0  -3538.937066   1477.740689     12.168245     60.720504
 6400.0  -3587.183428   1506.909129     12.321804     61.147209
 6450.0  -3635.158946   1536.000984     12.473692     61.568852
 6500.0  -3682.849456   1564.925077     12.623279     61.985344
 6550.0  -3730.277513   1593.611897     12.770042     62.396880
 6600.0  -3777.637130   1622.092951     12.913956     62.804981
 6650.0  -3825.177404   1650.433497     13.055164     63.211593
 6700.0  -3873.196318   1678.732771     13.193991     63.619042
 6750.0  -3922.006279   1707.095328     13.330779     64.029765
 6800.0  -3971.928500   1735.613012     13.465766     64.446255
 6850.0  -4023.265900   1764.379280     13.599227     64.870874
 6900.0  -4076.239411   1793.506745     13.731687     65.305387
 6950.0  -4130.867407   1823.148448     13.864240     65.750092
 7000.0  -4186.440000   1853.600000     14.000000     66.200000
 7050.0  -4242.202202   1885.115369     14.141837     66.649761
 7100.0  -4297.946878   1917.639398     14.289614     67.097860
 7150.0  -4353.599209   1951.039808     14.442452     67.543708
 7200.0  -4409.065787   1985.184951     14.599502     67.986580
 7250.0  -4464.252394   2019.945378     14.759932     68.425744
 7300.0  -4519.080151   2055.199786     14.922942     68.860585
 7350.0  -4573.516103   2090.863757     15.087922     69.290830
 7400.0  -4627.695660   2126.992254     15.254979     69.717467
 7450.0  -4681.795443   2163.673725     15.424390     70.141794
 7500.0  -4735.988552   2200.991175     15.596401     70.565081
 7550.0  -4790.443333   2239.025213     15.771246     70.988562
 7600.0  -4845.312635   2277.852293     15.949158     71.413367
 7650.0  -4900.761809   2317.553345     16.130378     71.840710
 7700.0  -4957.021715   2358.231352     16.315199     72.272259
 7750.0  -5014.260930   2399.967993     16.503863     72.709252
 7800.0  -5072.333395   2442.737676     16.696370     73.150758
 7850.0  -5130.938851   2486.462357     16.892602     73.594780
 7900.0  -5189.474883   2530.961458     17.092208     74.037241
 7950.0  -5247.280181   2576.034010     17.294793     74.473657
 8000.0  -5303.760000   2621.500000     17.500000     74.900000
 8050.0  -5358.499686   2667.195589     17.707346     75.313423
 8100.0  -5411.738376   2713.000674     17.915788     75.715345
 8150.0  -5463.886529   2758.802730     18.124117     76.108297
 8200.0  -5515.386095   2804.475811     18.331000     76.494995
 8250.0  -5566.658704   2849.906092     18.535205     76.878042
 8300.0  -5618.013216   2895.041648     18.736014     77.259388
 8350.0  -5669.673290   2939.878102     18.933102     77.640496
 8400.0  -5721.634544   2984.539380     19.127205     78.021520
 8450.0  -5773.845287   3029.175689     19.319276     78.402340
 8500.0  -5826.292637   3073.914066     19.510081     78.783057
 8550.0  -5878.970918   3118.878433     19.700357     79.163815
 8600.0  -5931.864472   3164.203440     19.890916     79.544709
 8650.0  -5984.955424   3210.021485     20.082561     79.925814
 8700.0  -6038.227024   3256.445239     20.275981     80.307189
 8750.0  -6091.664175   3303.599489     20.471933     80.688917
 8800.0  -6145.257270   3351.677199     20.671553     81.071210
 8850.0  -6198.991165   3400.812785     20.875652     81.454165
 8900.0  -6252.823091   3450.838276     21.083353     81.837292
 8950.0  -6306.694329   3501.412018     21.292813     82.219766
 9000.0  -6360.510000   3551.800000     21.500000     82.600000
 9050.0  -6414.184840   3601.339742     21.701273     82.976570
 9100.0  -6467.708208   3650.047240     21.896740     83.349473
 9150.0  -6521.087675   3698.102809     22.087418     83.719048
 9200.0  -6574.329045   3745.665554     22.274203     84.085597
 9250.0  -6627.437663   3792.891004     22.457974     84.449413
 9300.0  -6680.418803   3839.941585     22.639649     84.810798
 9350.0  -6733.278234   3886.979851     22.820144     85.170058
 9400.0  -6786.023779   3934.161975     23.000338     85.527499
 9450.0  -6838.661737   3981.647192     23.181128     85.883423
 9500.0  -6891.190265   4029.613368     23.363531     86.238124
 9550.0  -6943.616857   4078.217650     23.548431     86.591907
 9600.0  -6995.994498   4127.515676     23.736056     86.945134
 9650.0  -7048.393938   4177.523452     23.926377     87.298192
 9700.0  -7100.911506   4228.199974     24.118999     87.651497
 9750.0  -7153.648427   4279.493357     24.313454     88.005474
 9800.0  -7206.699944   4331.365189     24.509362     88.360540
 9850.0  -7260.160153   4383.779516     24.706359     88.717109
 9900.0  -7314.124535   4436.696729     24.904058     89.075596
 9950.0  -7368.689028   4490.076589     25.102067     89.436420
10000.0  -7423.950000   4543.880000     25.300000     89.800000
10050.0  -7479.934577   4598.061873     25.497554     90.166412
10100.0  -7536.392500   4652.552004     25.694749     90.534341
10150.0  -7593.007161   4707.274537     25.891683     90.902141
10200.0  -7649.473950   4762.156119     26.088450     91.268227
10250.0  -7705.480037   4817.121747     26.285149     91.630974
10300.0  -7760.667707   4872.087313     26.481897     91.988525
10350.0  -7814.739129   4926.980827     26.678786     92.339329
10400.0  -7867.680901   4981.787884     26.875773     92.683298
10450.0  -7919.579200   5036.514241     27.072771     93.020857
10500.0  -7970.634087   5091.188708     27.269638     93.353014
10550.0  -8021.067078   5145.844437     27.466223     93.680888
10600.0  -8071.071610   5200.508895     27.662388     94.005455
10650.0  -8120.836007   5255.208517     27.857998     94.327662
10700.0  -8170.556216   5309.971281     28.052912     94.648497
10750.0  -8220.429485   5364.825428     28.246991     94.968955
10800.0  -8270.650652   5419.798703     28.440096     95.290017
10850.0  -8321.414458   5474.918836     28.632089     95.612666
10900.0  -8372.917664   5530.213998     28.822830     95.937893
10950.0  -8425.356117   5585.712154     29.012179     96.266684
11000.0  -8478.920000   5641.440000     29.200000     96.600000
11050.0  -8533.641337   5697.398506     29.386270     96.938055
11100.0  -8588.925200   5753.487003     29.571416     97.278098
11150.0  -8644.000689   5809.575097     29.755988     97.616550
11200.0  -8698.019988   5865.515124     29.940572     97.949474
11250.0  -8750.194113   5921.172629     30.125725     98.273206
11300.0  -8800.046337   5976.483266     30.311858     98.585534
11350.0  -8847.372976   6031.443992     30.499254     98.885516
11400.0  -8892.750254   6086.226872     30.687829     99.175838
11450.0  -8936.918599   6141.040838     30.877420     99.459948
11500.0  -8980.495342   6196.067183     31.067922     99.740723
11550.0  -9024.075286   6251.482143     31.259243    100.020934
11600.0  -9068.286218   6307.469360     31.451273    100.303507
11650.0  -9113.761962   6364.213831     31.643902    100.591395
11700.0  -9161.127503   6421.898568     31.837021    100.887509
11750.0  -9211.006209   6480.706221     32.030523    101.194755
11800.0  -9264.023816   6540.819969     32.224300    101.516047
11850.0  -9320.806491   6602.423091     32.418244    101.854303
11900.0  -9381.979775   6665.698725     32.612247    102.212437
11950.0  -9448.169087   6730.829980     32.806202    102.593365
12000.0  -9520.000000   6798.000000     33.000000    103.000000
12050.0  -9597.459331   6867.163942     33.193471    103.432272
12100.0  -9677.978704   6937.364994     33.386197    103.878172
12150.0  -9758.350897   7007.418333     33.577697    104.322704
12200.0  -9835.368481   7076.139063     33.767492    104.750871
12250.0  -9905.824176   7142.342338     33.955100    105.147679
12300.0  -9966.511517   7204.843600     34.140041    105.498135
12350.0 -10014.223480   7262.458094     34.321835    105.787245
12400.0 -10045.750000   7314.000000     34.500000    106.000000
12450.0 -10059.357103   7358.834674     34.674300    106.128266
12500.0 -10059.218212   7398.533241     34.845469    106.191412
12550.0 -10050.973007   7435.214558     35.014485    106.215638
12600.0 -10040.218807   7470.982644     35.182324    106.226947
12650.0 -10032.581865   7507.951653     35.349962    106.251477
12700.0 -10033.846535   7548.291115     35.518385    106.316089
12750.0 -10049.689188   7594.132739     35.688574    106.447149
12800.0 -10085.196144   7647.401561     35.861471    106.668322
12850.0 -10145.856736   7710.163777     36.038045    107.005118
12900.0 -10239.362383   7785.256887     36.219403    107.493131
12950.0 -10371.900449   7874.991579     36.406558    108.161068
13000.0 -10541.440000   7978.800000     36.600000    109.000000
13050.0 -10737.301403   8093.037292     36.799462    109.961264
13100.0 -10922.428537   8204.629119     37.002174    110.874899
13150.0 -11062.854509   8301.535475     37.205354    111.584966
13200.0 -11163.345841   8385.283160     37.408684    112.112904
13250.0 -11236.298458   8460.071232     37.612330    112.515093
13300.0 -11285.892497   8527.220967     37.815936    112.810287
13350.0 -11314.802369   8587.526323     38.019049    113.010346
13400.0 -11327.895361   8642.549778     38.221360    113.137172
13450.0 -11330.448049   8693.996866     38.422582    113.214542
13500.0 -11327.181291   8743.376827     38.622387    113.263681
13550.0 -11322.684514   8792.153992     38.820443    113.305219
13600.0 -11321.577142   8841.809353     39.016448    113.359939
13650.0 -11328.595032   8893.860479     39.210087    113.449147
13700.0 -11348.909770   8949.954592     39.400973    113.596067
13750.0 -11387.340705   9011.632089     39.588768    113.822367
13800.0 -11446.862496   9079.876401     39.773413    114.141555
13850.0 -11527.920672   9154.906696     39.955223    114.555957
13900.0 -11622.688933   9234.442048     40.135740    115.031315
13950.0 -11721.519435   9315.650993     40.316777    115.525314
14000.0 -11815.750000   9396.000000     40.500000    116.000000
14050.0 -11898.582515   9473.490792     40.686680    116.425568
14100.0 -11969.689464   9547.968183     40.876648    116.800451
14150.0 -12030.378552   9619.743077     41.069372    117.130220
14200.0 -12082.027784   9689.147665     41.264310    117.420757
14250.0 -12126.028438   9756.518124     41.460917    117.678002
14300.0 -12163.754595   9822.185302     41.658651    117.907818
14350.0 -12196.575661   9886.478722     41.856972    118.116050
14400.0 -12225.859528   9949.727951     42.055340    118.308536
14450.0 -12252.979523  10012.263855     42.253215    118.491136
14500.0 -12279.332217  10074.422465     42.450045    118.669812
14550.0 -12306.296878  10136.535871     42.645285    118.850449
14600.0 -12335.160308  10198.915252     42.838432    119.038537
14650.0 -12366.943330  10261.811553     43.029102    119.238423
14700.0 -12401.695300  10325.255704     43.217342    119.450279
14750.0 -12439.238169  10389.227134     43.403299    119.673302
14800.0 -12479.455730  10453.719277     43.587095    119.906954
14850.0 -12522.247237  10518.729070     43.768843    120.150762
14900.0 -12567.511944  10584.253450     43.948657    120.404253
14950.0 -12615.149105  10650.289353     44.126651    120.666956
