#Lambda        Dielectric Constant          Refractive Index
# [nm]        [Real]        [Imag]        [Real]        [Imag]
   50.0      0.332800      0.489600      0.680000      0.360000
   55.0      0.205676      0.695155      0.689826      0.507359
   60.0      0.185481      0.890780      0.740055      0.601840
   65.0      0.218945      1.072265      0.807756      0.662901
   70.0      0.252800      1.235400      0.870000      0.710000
   75.0      0.255401      1.381754      0.913057      0.757578
   80.0      0.281600      1.536000      0.960000      0.800000
   85.0      0.387299      1.705648      1.031652      0.825626
   90.0      0.546108      1.806442      1.103037      0.818868
   95.0      0.705969      1.765587      1.143487      0.772831
  100.0      0.794435      1.647896      1.145366      0.719325
  105.0      0.760792      1.539184      1.111883      0.691594
  110.0      0.661640      1.471669      1.066588      0.689897
  115.0      0.565953      1.452513      1.031429      0.704660
  120.0      0.484884      1.442255      1.001602      0.719958
  125.0      0.408308      1.404482      0.966617      0.725513
  130.0      0.298800      1.361600      0.920000      0.740000
  135.0      0.127743      1.343150      0.860018      0.782271
  140.0     -0.070936      1.348391      0.799878      0.842948
  145.0     -0.260628      1.370574      0.752631      0.909415
  150.0     -0.456527      1.409210      0.715767      0.984340
  155.0     -0.679140      1.468855      0.685723      1.072207
  160.0     -0.918414      1.567999      0.670286      1.169467
  165.0     -1.154185      1.719614      0.676802      1.269144
  170.0     -1.356403      1.900674      0.699511      1.358574
  175.0     -1.506979      2.084460      0.729676      1.428745
  180.0     -1.645566      2.265493      0.759775      1.490927
  185.0     -1.807264      2.444534      0.785289      1.556365
  190.0     -1.951226      2.626072      0.812511      1.615911
  195.0     -2.032292      2.814261      0.848177      1.659027
  200.0     -2.064000      3.008200      0.890000      1.690000
  205.0     -2.072046      3.195084      0.931625      1.714626
  210.0     -2.072066      3.319555      0.959453      1.729919
  215.0     -2.079705      3.342006      0.963496      1.734440
  220.0     -2.120713      3.328392      0.955450      1.741727
  225.0     -2.218261      3.344263      0.947238      1.764848
  230.0     -2.375100      3.348000      0.930000      1.800000
  235.0     -2.587503      3.300051      0.896170      1.841810
  240.0     -2.846247      3.276311      0.864153      1.895485
  245.0     -3.135215      3.350403      0.852282      1.964583
  250.0     -3.416198      3.471417      0.852645      2.035481
  255.0     -3.660849      3.578786      0.854054      2.095614
  260.0     -3.902364      3.697863      0.858465      2.153833
  265.0     -4.174078      3.859378      0.869142      2.219909
  270.0     -4.448354      4.029655      0.881442      2.285871
  275.0     -4.696863      4.172195      0.890315      2.343186
  280.0     -4.949494      4.303608      0.897007      2.398825
  285.0     -5.238981      4.454488      0.905035      2.461285
  290.0     -5.551228      4.658263      0.920726      2.529672
  295.0     -5.862385      4.931591      0.948050      2.600247
  300.0     -6.156406      5.221224      0.978756      2.667276
  305.0     -6.425325      5.476660      1.004560      2.726685
  310.0     -6.685696      5.728277      1.029267      2.783042
  315.0     -6.954509      6.014091      1.058060      2.841442
  320.0     -7.225976      6.321796      1.089542      2.900457
  325.0     -7.488117      6.634996      1.121846      2.957425
  330.0     -7.726976      6.971254      1.157813      3.011271
  335.0     -7.930536      7.345786      1.199919      3.061165
  340.0     -8.096521      7.730447      1.244457      3.105674
  345.0     -8.226098      8.089096      1.286549      3.143439
  350.0     -8.324464      8.396965      1.322805      3.173995
  355.0     -8.403994      8.645973      1.351663      3.198634
  360.0     -8.501730      8.883418      1.377402      3.224772
  365.0     -8.648234      9.146759      1.403396      3.258425
  370.0     -8.823471      9.378713      1.423580      3.293890
  375.0     -9.006153      9.525947      1.432417      3.325454
  380.0     -9.220565      9.645664      1.435938      3.359096
  385.0     -9.496446      9.812048      1.442002      3.402369
  390.0     -9.839778     10.056674      1.454226      3.457416
  395.0    -10.242974     10.387069      1.473870      3.523397
  400.0    -10.667926     10.757174      1.497027      3.592932
  405.0    -11.075160     11.121113      1.519888      3.658624
  410.0    -11.450269     11.487341      1.544216      3.719533
  415.0    -11.790475     11.881114      1.573098      3.776958
  420.0    -12.114465     12.340579      1.609353      3.834688
  425.0    -12.440531     12.895214      1.654811      3.896016
  430.0    -12.763933     13.526947      1.707613      3.959752
  435.0    -13.070985     14.199727      1.764507      4.022973
  440.0    -13.335264     14.853157      1.820345      4.080309
  445.0    -13.536822     15.445586      1.871596      4.127906
  450.0    -13.694362     16.034702      1.923074      4.170419
  455.0    -13.831282     16.690852      1.980701      4.213589
  460.0    -13.951119     17.435668      2.046471      4.259007
  465.0    -14.046322     18.265275      2.120358      4.306041
  470.0    -14.084848     19.122466      2.198186      4.349333
  475.0    -14.037932     19.947296      2.275429      4.383666
  480.0    -13.914415     20.722186      2.350300      4.409112
  485.0    -13.733471     21.440710      2.421723      4.427176
  490.0    -13.517994     22.098682      2.488712      4.439789
  495.0    -13.286986     22.696065      2.550763      4.448727
  500.0    -13.040165     23.247165      2.609204      4.454714
  505.0    -12.772062     23.770765      2.665909      4.458225
  510.0    -12.475763     24.289193      2.723117      4.459801
  515.0    -12.147039     24.819218      2.782484      4.459915
  520.0    -11.793858     25.351811      2.842978      4.458691
  525.0    -11.428505     25.868893      2.902622      4.456137
  530.0    -11.068324     26.341987      2.958359      4.452131
  535.0    -10.728406     26.747010      3.007584      4.446599
  540.0    -10.409767     27.087848      3.050579      4.439794
  545.0    -10.109087     27.377015      3.088515      4.432072
  550.0     -9.819766     27.633549      3.123237      4.423865
  555.0     -9.534886     27.877075      3.156649      4.415611
  560.0     -9.249539     28.123027      3.190226      4.407688
  565.0     -8.961167     28.381716      3.224920      4.400387
  570.0     -8.674592     28.647143      3.260021      4.393724
  575.0     -8.396489     28.909360      3.294412      4.387651
  580.0     -8.133557     29.158930      3.327019      4.382146
  585.0     -7.891105     29.388475      3.356997      4.377192
  590.0     -7.668844     29.598342      3.384380      4.372776
  595.0     -7.464736     29.791312      3.409479      4.368887
  600.0     -7.275344     29.972170      3.432829      4.365520
  605.0     -7.096941     30.146115      3.455014      4.362669
  610.0     -6.926047     30.318011      3.476577      4.360328
  615.0     -6.759755     30.491827      3.497966      4.358487
  620.0     -6.597190     30.668300      3.519284      4.357115
  625.0     -6.438033     30.847285      3.540541      4.356179
  630.0     -6.282147     31.028351      3.561716      4.355642
  635.0     -6.129429     31.211015      3.582783      4.355469
  640.0     -5.979726     31.394871      3.603722      4.355623
  645.0     -5.832879     31.579524      3.624517      4.356068
  650.0     -5.688740     31.764562      3.645148      4.356768
  655.0     -5.547164     31.949567      3.665596      4.357687
  660.0     -5.408002     32.134128      3.685841      4.358790
  665.0     -5.271104     32.317833      3.705865      4.360040
  670.0     -5.136322     32.500272      3.725648      4.361400
  675.0     -5.003508     32.681031      3.745172      4.362835
  680.0     -4.872514     32.859698      3.764417      4.364310
  685.0     -4.743191     33.035859      3.783364      4.365788
  690.0     -4.615389     33.209107      3.801994      4.367233
  695.0     -4.488959     33.379031      3.820288      4.368609
  700.0     -4.363759     33.545204      3.838226      4.369880
  705.0     -4.239605     33.707303      3.855797      4.371013
  710.0     -4.116145     33.865440      3.873029      4.371994
  715.0     -3.992983     34.019840      3.889961      4.372812
  720.0     -3.869717     34.170747      3.906632      4.373458
  725.0     -3.745941     34.318409      3.923083      4.373923
  730.0     -3.621252     34.463069      3.939354      4.374197
  735.0     -3.495248     34.604967      3.955485      4.374272
  740.0     -3.367527     34.744346      3.971516      4.374137
  745.0     -3.237685     34.881450      3.987488      4.373784
  750.0     -3.105319     35.016523      4.003440      4.373203
  755.0     -2.970026     35.149806      4.019412      4.372385
  760.0     -2.831405     35.281541      4.035445      4.371320
  765.0     -2.689055     35.411969      4.051578      4.369999
  770.0     -2.542561     35.541343      4.067852      4.368412
  775.0     -2.391516     35.669907      4.084308      4.366550
  780.0     -2.235565     35.797872      4.100981      4.364405
  785.0     -2.074316     35.925473      4.117910      4.361967
  790.0     -1.907194     36.053070      4.135153      4.359224
  795.0     -1.733748     36.180936      4.152754      4.356166
  800.0     -1.554225     36.308880      4.170689      4.352795
  805.0     -1.368395     36.437027      4.188983      4.349106
  810.0     -1.173435     36.567245      4.207909      4.345041
  815.0     -0.968636     36.699990      4.227538      4.340586
  820.0     -0.764349     36.828338      4.246870      4.335947
  825.0     -0.574304     36.943406      4.264594      4.331414
  830.0     -0.414695     37.035846      4.279228      4.327391
  835.0     -0.296874     37.100346      4.289806      4.324232
  840.0     -0.210351     37.148203      4.297595      4.321965
  845.0     -0.140255     37.193908      4.304301      4.320547
  850.0     -0.076030     37.248127      4.311158      4.319968
  855.0     -0.008640     37.317368      4.319068      4.320071
  860.0      0.069198     37.395333      4.328082      4.320081
  865.0      0.162332     37.473841      4.338003      4.319256
  870.0      0.267630     37.549997      4.348482      4.317611
  875.0      0.379568     37.622206      4.359110      4.315368
  880.0      0.491021     37.688798      4.369382      4.312839
  885.0      0.595464     37.748479      4.378849      4.310321
  890.0      0.690368     37.801545      4.387383      4.307976
  895.0      0.775371     37.849190      4.395032      4.305894
  900.0      0.854784     37.894619      4.402226      4.304017
  905.0      0.933988     37.941553      4.409488      4.302255
  910.0      1.017980     37.993776      4.417320      4.300544
  915.0      1.110304     38.053892      4.426076      4.298833
  920.0      1.209083     38.119713      4.435525      4.297099
  925.0      1.310808     38.187616      4.445260      4.295328
  930.0      1.410878     38.253038      4.454757      4.293512
  935.0      1.504550     38.311315      4.463479      4.291646
  940.0      1.587608     38.358317      4.470950      4.289727
  945.0      1.656968     38.391246      4.476833      4.287764
  950.0      1.713547     38.412092      4.481294      4.285820
  955.0      1.759220     38.423995      4.484619      4.283970
  960.0      1.795693     38.429923      4.487073      4.282289
  965.0      1.824625     38.432763      4.488915      4.280850
  970.0      1.847667     38.435265      4.490396      4.279720
  975.0      1.866360     38.439789      4.491737      4.278947
  980.0      1.881811     38.447274      4.493055      4.278526
  985.0      1.895032     38.458340      4.494442      4.278437
  990.0      1.907079     38.473739      4.496001      4.278665
  995.0      1.919012     38.494245      4.497837      4.279197
 1000.0      1.931873     38.520589      4.500049      4.280019
 1005.0      1.946390     38.553100      4.502697      4.281109
 1010.0      1.962055     38.590557      4.505685      4.282425
 1015.0      1.978061     38.631360      4.508877      4.283917
 1020.0      1.993637     38.673961      4.512143      4.285537
 1025.0      2.007996     38.716784      4.515349      4.287237
 1030.0      2.020243     38.758108      4.518348      4.288967
 1035.0      2.029620     38.796404      4.521011      4.290678
 1040.0      2.036039     38.831065      4.523300      4.292340
 1045.0      2.039642     38.861807      4.525207      4.293929
 1050.0      2.040834     38.888722      4.526762      4.295427
 1055.0      2.040072     38.911968      4.527999      4.296820
 1060.0      2.037763     38.931591      4.528946      4.298087
 1065.0      2.034291     38.947634      4.529627      4.299211
 1070.0      2.030002     38.960243      4.530071      4.300180
 1075.0      2.025077     38.969808      4.530310      4.301008
 1080.0      2.019078     38.977585      4.530389      4.301791
 1085.0      2.011428     38.985023      4.530353      4.302646
 1090.0      2.001615     38.993464      4.530248      4.303677
 1095.0      1.989119     39.004271      4.530119      4.304993
 1100.0      1.973331     39.019008      4.530018      4.306716
 1105.0      1.953698     39.039100      4.529991      4.308960
 1110.0      1.929995     39.065227      4.530062      4.311777
 1115.0      1.902280     39.097416      4.530236      4.315166
 1120.0      1.871425     39.133828      4.530463      4.318971
 1125.0      1.838468     39.172238      4.530679      4.323006
 1130.0      1.804293     39.210748      4.530829      4.327114
 1135.0      1.769779     39.247491      4.530862      4.331138
 1140.0      1.735937     39.280395      4.530721      4.334903
 1145.0      1.703713     39.307465      4.530352      4.338240
 1150.0      1.673663     39.327218      4.529703      4.341034
 1155.0      1.645820     39.338847      4.528732      4.343236
 1160.0      1.618526     39.343727      4.527422      4.345018
 1165.0      1.589747     39.343718      4.525760      4.346601
 1170.0      1.557628     39.340428      4.523728      4.348182
 1175.0      1.520364     39.335411      4.521310      4.349951
 1180.0      1.476181     39.330258      4.518493      4.352098
 1185.0      1.423238     39.326596      4.515262      4.354819
 1190.0      1.359398     39.326154      4.511591      4.358335
 1195.0      1.283101     39.330434      4.507475      4.362819
 1200.0      1.195401     39.339920      4.503000      4.368239
 1205.0      1.098153     39.354784      4.498283      4.374500
 1210.0      0.993801     39.374966      4.493461      4.381462
 1215.0      0.884897     39.400366      4.488674      4.388975
 1220.0      0.773842     39.430941      4.484057      4.396901
 1225.0      0.663009     39.466660      4.479746      4.405105
 1230.0      0.554812     39.507475      4.475875      4.413449
 1235.0      0.451672     39.553337      4.472581      4.421793
 1240.0      0.356000     39.604200      4.470000      4.430000
 1245.0      0.269614     39.659851      4.468223      4.437954
 1250.0      0.191977     39.719407      4.467171      4.445636
 1255.0      0.121961     39.781816      4.466719      4.453051
 1260.0      0.058440     39.846029      4.466745      4.460202
 1265.0      0.000286     39.910996      4.467124      4.467093
 1270.0     -0.053633     39.975658      4.467732      4.473729
 1275.0     -0.104446     40.038961      4.468445      4.480114
 1280.0     -0.153264     40.099888      4.469142      4.486252
 1285.0     -0.201210     40.157398      4.469701      4.492148
 1290.0     -0.249474     40.210312      4.469986      4.497803
 1295.0     -0.299123     40.257704      4.469885      4.503225
 1300.0     -0.350670     40.299795      4.469382      4.508454
 1305.0     -0.404455     40.337155      4.468491      4.513541
 1310.0     -0.460697     40.370609      4.467246      4.518545
 1315.0     -0.519590     40.401033      4.465688      4.523526
 1320.0     -0.581363     40.429242      4.463851      4.528543
 1325.0     -0.646249     40.456035      4.461768      4.533653
 1330.0     -0.714461     40.482200      4.459474      4.538913
 1335.0     -0.786217     40.508548      4.457002      4.544379
 1340.0     -0.861788     40.535993      4.454391      4.550119
 1345.0     -0.941408     40.565369      4.451675      4.556193
 1350.0     -1.025124     40.597095      4.448875      4.562626
 1355.0     -1.112735     40.631039      4.445996      4.569401
 1360.0     -1.203240     40.665277      4.442982      4.576358
 1365.0     -1.295444     40.697463      4.439765      4.583302
 1370.0     -1.388183     40.725349      4.436280      4.590046
 1375.0     -1.480359     40.746811      4.432465      4.596412
 1380.0     -1.571115     40.760134      4.428270      4.602258
 1385.0     -1.659950     40.764229      4.423660      4.607499
 1390.0     -1.747555     40.760100      4.418656      4.612228
 1395.0     -1.834885     40.749211      4.413290      4.616580
 1400.0     -1.922751     40.732775      4.407588      4.620668
 1405.0     -2.011937     40.711960      4.401575      4.624600
 1410.0     -2.103265     40.687997      4.395278      4.628491
 1415.0     -2.197564     40.662133      4.388723      4.632455
 1420.0     -2.295661     40.635603      4.381937      4.636608
 1425.0     -2.398375     40.609634      4.374946      4.641063
 1430.0     -2.506502     40.585428      4.367777      4.645932
 1435.0     -2.620857     40.564207      4.360455      4.651328
 1440.0     -2.742352     40.547311      4.353008      4.657377
 1445.0     -2.871716     40.535860      4.345462      4.664180
 1450.0     -3.008855     40.529997      4.337831      4.671741
 1455.0     -3.153421     40.529561      4.330127      4.680031
 1460.0     -3.304881     40.534174      4.322359      4.688999
 1465.0     -3.462668     40.543414      4.314535      4.698590
 1470.0     -3.626261     40.556918      4.306665      4.708754
 1475.0     -3.795149     40.574331      4.298758      4.719443
 1480.0     -3.968810     40.595286      4.290824      4.730607
 1485.0     -4.146717     40.619412      4.282871      4.742196
 1490.0     -4.328346     40.646338      4.274909      4.754161
 1495.0     -4.513173     40.675697      4.266947      4.766451
 1500.0     -4.700685     40.707131      4.258994      4.779017
 1505.0     -4.890360     40.740275      4.251060      4.791809
 1510.0     -5.081642     40.774724      4.243153      4.804775
 1515.0     -5.274042     40.810147      4.235283      4.817868
 1520.0     -5.467366     40.846543      4.227461      4.831075
 1525.0     -5.661512     40.884012      4.219700      4.844395
 1530.0     -5.856446     40.922729      4.212012      4.857831
 1535.0     -6.052145     40.962881      4.204409      4.871391
 1540.0     -6.248569     41.004639      4.196905      4.885078
 1545.0     -6.445675     41.048168      4.189511      4.898898
 1550.0     -6.643425     41.093638      4.182241      4.912855
 1555.0     -6.841781     41.141222      4.175106      4.926953
 1560.0     -7.040705     41.191090      4.168118      4.941198
 1565.0     -7.240158     41.243412      4.161291      4.955594
 1570.0     -7.440101     41.298358      4.154637      4.970145
 1575.0     -7.640495     41.356100      4.148169      4.984856
 1580.0     -7.841302     41.416807      4.141898      4.999733
 1585.0     -8.042483     41.480650      4.135838      5.014779
 1590.0     -8.244000     41.547800      4.130000      5.030000
 1595.0     -8.445798     41.618361      4.124394      5.045395
 1600.0     -8.647760     41.692173      4.119016      5.060950
 1605.0     -8.849753     41.769010      4.113857      5.076644
 1610.0     -9.051644     41.848647      4.108908      5.092458
 1615.0     -9.253299     41.930858      4.104162      5.108372
 1620.0     -9.454586     42.015418      4.099610      5.124367
 1625.0     -9.655372     42.102100      4.095244      5.140422
 1630.0     -9.855524     42.190679      4.091056      5.156519
 1635.0    -10.054908     42.280929      4.087037      5.172638
 1640.0    -10.253393     42.372625      4.083179      5.188758
 1645.0    -10.450845     42.465541      4.079475      5.204860
 1650.0    -10.647129     42.559449      4.075915      5.220925
 1655.0    -10.842111     42.654124      4.072492      5.236933
 1660.0    -11.035667     42.749345      4.069197      5.252864
 1665.0    -11.227666     42.844888      4.066022      5.268700
 1670.0    -11.417943     42.940508      4.062959      5.284417
 1675.0    -11.606365     43.035978      4.060000      5.299996
 1680.0    -11.792961     43.131174      4.057136      5.315433
 1685.0    -11.977843     43.226021      4.054357      5.330730
 1690.0    -12.161286     43.320546      4.051654      5.345905
 1695.0    -12.343597     43.414796      4.049016      5.360978
 1700.0    -12.525047     43.508797      4.046434      5.375966
 1705.0    -12.705903     43.602569      4.043898      5.390888
 1710.0    -12.886439     43.696140      4.041397      5.405761
 1715.0    -13.066933     43.789539      4.038922      5.420602
 1720.0    -13.247658     43.882791      4.036464      5.435429
 1725.0    -13.428888     43.975923      4.034012      5.450260
 1730.0    -13.610898     44.068962      4.031556      5.465113
 1735.0    -13.793963     44.161934      4.029086      5.480006
 1740.0    -13.978356     44.254867      4.026593      5.494956
 1745.0    -14.164353     44.347787      4.024066      5.509980
 1750.0    -14.352228     44.440721      4.021495      5.525097
 1755.0    -14.542257     44.533695      4.018871      5.540325
 1760.0    -14.734708     44.626738      4.016184      5.555680
 1765.0    -14.929854     44.719876      4.013424      5.571181
 1770.0    -15.127993     44.813132      4.010580      5.586846
 1775.0    -15.329334     44.906544      4.007645      5.602690
 1780.0    -15.533695     45.000229      4.004633      5.618705
 1785.0    -15.740785     45.094322      4.001563      5.634880
 1790.0    -15.950276     45.188967      3.998456      5.651200
 1795.0    -16.161834     45.284308      3.995333      5.667650
 1800.0    -16.375135     45.380489      3.992215      5.684215
 1805.0    -16.589857     45.477651      3.989123      5.700882
 1810.0    -16.805674     45.575938      3.986078      5.717636
 1815.0    -17.022260     45.675492      3.983099      5.734463
 1820.0    -17.239290     45.776457      3.980209      5.751348
 1825.0    -17.456440     45.878975      3.977428      5.768277
 1830.0    -17.673384     45.983190      3.974777      5.785235
 1835.0    -17.889798     46.089244      3.972276      5.802209
 1840.0    -18.105356     46.197279      3.969947      5.819183
 1845.0    -18.319734     46.307439      3.967810      5.836144
 1850.0    -18.532605     46.419868      3.965887      5.853077
 1855.0    -18.743645     46.534708      3.964197      5.869967
 1860.0    -18.952530     46.652100      3.962762      5.886801
 1865.0    -19.158937     46.772186      3.961603      5.903564
 1870.0    -19.362532     46.895117      3.960740      5.920242
 1875.0    -19.562989     47.021037      3.960195      5.936819
 1880.0    -19.760011     47.150064      3.959986      5.953283
 1885.0    -19.953385     47.282246      3.960124      5.969622
 1890.0    -20.143212     47.417369      3.960593      5.985835
 1895.0    -20.329666     47.555157      3.961368      6.001922
 1900.0    -20.512898     47.695352      3.962427      6.017882
 1905.0    -20.693056     47.837698      3.963750      6.033715
 1910.0    -20.870293     47.981937      3.965315      6.049421
 1915.0    -21.044764     48.127808      3.967100      6.065000
 1920.0    -21.216623     48.275052      3.969082      6.080450
 1925.0    -21.386021     48.423410      3.971241      6.095772
 1930.0    -21.553113     48.572623      3.973554      6.110965
 1935.0    -21.718052     48.722432      3.976000      6.126029
 1940.0    -21.880990     48.872577      3.978558      6.140965
 1945.0    -22.042081     49.022799      3.981205      6.155771
 1950.0    -22.201479     49.172839      3.983920      6.170448
 1955.0    -22.359336     49.322438      3.986681      6.184994
 1960.0    -22.515806     49.471336      3.989465      6.199409
 1965.0    -22.671041     49.619274      3.992252      6.213694
 1970.0    -22.825195     49.765994      3.995019      6.227848
 1975.0    -22.978422     49.911236      3.997745      6.241870
 1980.0    -23.130874     50.054740      4.000409      6.255761
 1985.0    -23.282705     50.196248      4.002988      6.269520
 1990.0    -23.434067     50.335500      4.005461      6.283146
 1995.0    -23.585114     50.472237      4.007806      6.296640
 2000.0    -23.736000     50.606200      4.010000      6.310000
 2005.0    -23.886863     50.737183      4.012027      6.323228
 2010.0    -24.037788     50.865198      4.013884      6.336330
 2015.0    -24.188845     50.990308      4.015574      6.349312
 2020.0    -24.340104     51.112578      4.017098      6.362182
 2025.0    -24.491635     51.232072      4.018459      6.374946
 2030.0    -24.643508     51.348854      4.019658      6.387610
 2035.0    -24.795794     51.462989      4.020697      6.400181
 2040.0    -24.948564     51.574541      4.021579      6.412667
 2045.0    -25.101886     51.683574      4.022306      6.425074
 2050.0    -25.255832     51.790152      4.022879      6.437410
 2055.0    -25.410471     51.894341      4.023301      6.449680
 2060.0    -25.565874     51.996204      4.023573      6.461891
 2065.0    -25.722111     52.095806      4.023698      6.474051
 2070.0    -25.879253     52.193210      4.023677      6.486166
 2075.0    -26.037369     52.288482      4.023513      6.498243
 2080.0    -26.196530     52.381685      4.023207      6.510289
 2085.0    -26.356805     52.472885      4.022762      6.522311
 2090.0    -26.518266     52.562145      4.022180      6.534315
 2095.0    -26.680982     52.649529      4.021463      6.546309
 2100.0    -26.845023     52.735102      4.020612      6.558298
 2105.0    -27.010460     52.818929      4.019630      6.570290
 2110.0    -27.177363     52.901073      4.018518      6.582292
 2115.0    -27.345803     52.981599      4.017280      6.594310
 2120.0    -27.515849     53.060571      4.015916      6.606352
 2125.0    -27.687570     53.138053      4.014429      6.618423
 2130.0    -27.861040     53.214111      4.012820      6.630532
 2135.0    -28.036331     53.288808      4.011092      6.642685
 2140.0    -28.213499     53.362209      4.009248      6.654888
 2145.0    -28.392576     53.434376      4.007290      6.667144
 2150.0    -28.573526     53.505374      4.005222      6.679455
 2155.0    -28.756297     53.575265      4.003051      6.691819
 2160.0    -28.940846     53.644111      4.000781      6.704236
 2165.0    -29.127129     53.711975      3.998417      6.716705
 2170.0    -29.315102     53.778920      3.995965      6.729225
 2175.0    -29.504721     53.845009      3.993429      6.741796
 2180.0    -29.695941     53.910305      3.990814      6.754418
 2185.0    -29.888718     53.974870      3.988126      6.767089
 2190.0    -30.083008     54.038767      3.985369      6.779809
 2195.0    -30.278766     54.102059      3.982549      6.792578
 2200.0    -30.475948     54.164808      3.979670      6.805395
 2205.0    -30.674509     54.227078      3.976738      6.818260
 2210.0    -30.874406     54.288930      3.973758      6.831171
 2215.0    -31.075593     54.350428      3.970735      6.844129
 2220.0    -31.278027     54.411635      3.967673      6.857132
 2225.0    -31.481664     54.472613      3.964578      6.870180
 2230.0    -31.686458     54.533426      3.961455      6.883273
 2235.0    -31.892365     54.594136      3.958309      6.896410
 2240.0    -32.099342     54.654805      3.955146      6.909590
 2245.0    -32.307344     54.715496      3.951969      6.922813
 2250.0    -32.516326     54.776272      3.948784      6.936079
 2255.0    -32.726245     54.837196      3.945596      6.949386
 2260.0    -32.937055     54.898331      3.942411      6.962734
 2265.0    -33.148713     54.959739      3.939233      6.976123
 2270.0    -33.361173     55.021484      3.936068      6.989551
 2275.0    -33.574392     55.083628      3.932919      7.003019
 2280.0    -33.788327     55.146232      3.929793      7.016525
 2285.0    -34.002932     55.209359      3.926695      7.030070
 2290.0    -34.218161     55.273077      3.923629      7.043652
 2295.0    -34.433968     55.337450      3.920601      7.057272
 2300.0    -34.650324     55.402515      3.917614      7.070928
 2305.0    -34.867206     55.468293      3.914670      7.084619
 2310.0    -35.084612     55.534766      3.911769      7.098345
 2315.0    -35.302546     55.601906      3.908908      7.112106
 2320.0    -35.521007     55.669695      3.906086      7.125900
 2325.0    -35.739995     55.738114      3.903302      7.139726
 2330.0    -35.959509     55.807143      3.900556      7.153583
 2335.0    -36.179548     55.876762      3.897846      7.167472
 2340.0    -36.400112     55.946950      3.895171      7.181391
 2345.0    -36.621201     56.017688      3.892530      7.195338
 2350.0    -36.842814     56.088957      3.889921      7.209314
 2355.0    -37.064951     56.160736      3.887344      7.223318
 2360.0    -37.287612     56.233005      3.884798      7.237349
 2365.0    -37.510796     56.305745      3.882281      7.251406
 2370.0    -37.734502     56.378935      3.879793      7.265487
 2375.0    -37.958731     56.452556      3.877332      7.279593
 2380.0    -38.183482     56.526587      3.874898      7.293722
 2385.0    -38.408754     56.601009      3.872488      7.307874
 2390.0    -38.634548     56.675802      3.870102      7.322048
 2395.0    -38.860862     56.750945      3.867739      7.336243
 2400.0    -39.087697     56.826420      3.865398      7.350459
 2405.0    -39.315052     56.902206      3.863078      7.364694
 2410.0    -39.542926     56.978284      3.860777      7.378947
 2415.0    -39.771320     57.054633      3.858495      7.393218
 2420.0    -40.000232     57.131233      3.856230      7.407507
 2425.0    -40.229662     57.208065      3.853981      7.421811
 2430.0    -40.459611     57.285108      3.851747      7.436131
 2435.0    -40.690077     57.362343      3.849527      7.450466
 2440.0    -40.921061     57.439749      3.847321      7.464814
 2445.0    -41.152561     57.517308      3.845126      7.479175
 2450.0    -41.384578     57.594999      3.842942      7.493549
 2455.0    -41.617111     57.672801      3.840767      7.507934
 2460.0    -41.850159     57.750696      3.838601      7.522329
 2465.0    -42.083722     57.828663      3.836442      7.536734
 2470.0    -42.317800     57.906683      3.834290      7.551148
 2475.0    -42.552393     57.984735      3.832143      7.565570
 2480.0    -42.787500     58.062800      3.830000      7.580000
 2485.0    -43.023120     58.140855      3.827860      7.594436
 2490.0    -43.259256     58.218873      3.825721      7.608878
 2495.0    -43.495909     58.296823      3.823582      7.623325
 2500.0    -43.733079     58.374673      3.821442      7.637778
 2505.0    -43.970768     58.452394      3.819298      7.652235
 2510.0    -44.208978     58.529954      3.817149      7.666696
 2515.0    -44.447710     58.607324      3.814994      7.681161
 2520.0    -44.686966     58.684473      3.812832      7.695628
 2525.0    -44.926746     58.761370      3.810660      7.710098
 2530.0    -45.167052     58.837985      3.808476      7.724569
 2535.0    -45.407886     58.914287      3.806280      7.739042
 2540.0    -45.649250     58.990245      3.804069      7.753517
 2545.0    -45.891144     59.065830      3.801843      7.767992
 2550.0    -46.133570     59.141010      3.799600      7.782467
 2555.0    -46.376529     59.215756      3.797338      7.796941
 2560.0    -46.620023     59.290036      3.795055      7.811415
 2565.0    -46.864053     59.363819      3.792750      7.825887
 2570.0    -47.108620     59.437076      3.790422      7.840357
 2575.0    -47.353726     59.509776      3.788069      7.854824
 2580.0    -47.599373     59.581889      3.785689      7.869289
 2585.0    -47.845561     59.653383      3.783281      7.883750
 2590.0    -48.092292     59.724228      3.780843      7.898207
 2595.0    -48.339568     59.794393      3.778374      7.912659
 2600.0    -48.587390     59.863849      3.775872      7.927107
 2605.0    -48.835759     59.932565      3.773335      7.941549
 2610.0    -49.084677     60.000509      3.770762      7.955985
 2615.0    -49.334145     60.067652      3.768151      7.970414
 2620.0    -49.584165     60.133962      3.765502      7.984837
 2625.0    -49.834738     60.199410      3.762812      7.999252
 2630.0    -50.085865     60.263965      3.760080      8.013660
 2635.0    -50.337547     60.327596      3.757304      8.028059
 2640.0    -50.589787     60.390273      3.754482      8.042448
 2645.0    -50.842585     60.451965      3.751613      8.056828
 2650.0    -51.095944     60.512642      3.748696      8.071198
 2655.0    -51.349864     60.572273      3.745729      8.085558
 2660.0    -51.604346     60.630827      3.742710      8.099907
 2665.0    -51.859393     60.688274      3.739638      8.114245
 2670.0    -52.115005     60.744584      3.736511      8.128570
 2675.0    -52.371184     60.799726      3.733327      8.142883
 2680.0    -52.627932     60.853669      3.730086      8.157183
 2685.0    -52.885251     60.906384      3.726785      8.171470
 2690.0    -53.143139     60.957836      3.723424      8.185742
 2695.0    -53.401597     61.007995      3.720000      8.200000
 2700.0    -53.660642     61.056851      3.716512      8.214244
 2705.0    -53.920302     61.104403      3.712961      8.228475
 2710.0    -54.180618     61.150670      3.709346      8.242696
 2715.0    -54.441637     61.195676      3.705669      8.256910
 2720.0    -54.703400     61.239440      3.701930      8.271119
 2725.0    -54.965949     61.281981      3.698129      8.285326
 2730.0    -55.229326     61.323319      3.694268      8.299533
 2735.0    -55.493574     61.363473      3.690346      8.313743
 2740.0    -55.758736     61.402464      3.686365      8.327958
 2745.0    -56.024854     61.440310      3.682325      8.342181
 2750.0    -56.291971     61.477032      3.678226      8.356414
 2755.0    -56.560128     61.512648      3.674068      8.370660
 2760.0    -56.829368     61.547179      3.669853      8.384922
 2765.0    -57.099734     61.580644      3.665581      8.399201
 2770.0    -57.371269     61.613063      3.661253      8.413501
 2775.0    -57.644014     61.644455      3.656869      8.427824
 2780.0    -57.918011     61.674840      3.652429      8.442173
 2785.0    -58.193304     61.704238      3.647934      8.456549
 2790.0    -58.469936     61.732668      3.643385      8.470956
 2795.0    -58.747948     61.760149      3.638782      8.485396
 2800.0    -59.027382     61.786702      3.634126      8.499872
 2805.0    -59.308282     61.812346      3.629418      8.514386
 2810.0    -59.590689     61.837101      3.624657      8.528941
 2815.0    -59.874646     61.860986      3.619845      8.543539
 2820.0    -60.160196     61.884020      3.614981      8.558183
 2825.0    -60.447381     61.906224      3.610067      8.572875
 2830.0    -60.736243     61.927618      3.605104      8.587618
 2835.0    -61.026825     61.948220      3.600091      8.602415
 2840.0    -61.319169     61.968050      3.595029      8.617267
 2845.0    -61.613318     61.987128      3.589918      8.632178
 2850.0    -61.909314     62.005473      3.584760      8.647149
 2855.0    -62.207200     62.023106      3.579555      8.662184
 2860.0    -62.507018     62.040045      3.574303      8.677285
 2865.0    -62.808810     62.056311      3.569005      8.692455
 2870.0    -63.112619     62.071923      3.563661      8.707696
 2875.0    -63.418488     62.086900      3.558272      8.723011
 2880.0    -63.726458     62.101263      3.552839      8.738401
 2885.0    -64.036573     62.115030      3.547362      8.753870
 2890.0    -64.348874     62.128222      3.541842      8.769420
 2895.0    -64.663404     62.140858      3.536279      8.785054
 2900.0    -64.980206     62.152957      3.530673      8.800775
 2905.0    -65.299322     62.164540      3.525026      8.816584
 2910.0    -65.620794     62.175625      3.519337      8.832484
 2915.0    -65.944665     62.186233      3.513608      8.848478
 2920.0    -66.270977     62.196383      3.507838      8.864569
 2925.0    -66.599773     62.206095      3.502029      8.880759
 2930.0    -66.931096     62.215388      3.496181      8.897050
 2935.0    -67.264988     62.224282      3.490294      8.913445
 2940.0    -67.601489     62.232796      3.484370      8.929947
 2945.0    -67.940643     62.240951      3.478408      8.946557
 2950.0    -68.282495     62.248765      3.472410      8.963279
 2955.0    -68.627085     62.256259      3.466375      8.980115
 2960.0    -68.974415     62.263454      3.460305      8.997066
 2965.0    -69.324475     62.270373      3.454201      9.014130
 2970.0    -69.677247     62.277038      3.448066      9.031307
 2975.0    -70.032714     62.283474      3.441900      9.048595
 2980.0    -70.390859     62.289703      3.435706      9.065994
 2985.0    -70.751665     62.295747      3.429485      9.083503
 2990.0    -71.115116     62.301630      3.423238      9.101120
 2995.0    -71.481194     62.307375      3.416968      9.118845
 3000.0    -71.849883     62.313005      3.410675      9.136677
 3050.0    -75.676645     62.368094      3.346895      9.320648
 3100.0    -79.746025     62.436771      3.282665      9.514216
 3150.0    -84.041241     62.541878      3.219592      9.716409
 3200.0    -88.545246     62.707391      3.159395      9.926237
 3250.0    -93.241192     62.956429      3.103707     10.142721
 3300.0    -98.113295     63.307557      3.053714     10.364945
 3350.0   -103.146481     63.776210      3.010294     10.592036
 3400.0   -108.327458     64.369862      2.973538     10.823228
 3450.0   -113.643360     65.094294      2.943372     11.057779
 3500.0   -119.081244     65.956461      2.919853     11.294943
 3550.0   -124.627932     66.963767      2.903071     11.533960
 3600.0   -130.269375     68.124219      2.893121     11.774018
 3650.0   -135.992469     69.444796      2.890051     12.014363
 3700.0   -141.788754     70.927749      2.893710     12.254512
 3750.0   -147.651959     72.573077      2.903853     12.494109
 3800.0   -153.579914     74.376505      2.920051     12.733043
 3850.0   -159.571253     76.332926      2.941837     12.971248
 3900.0   -165.623738     78.438181      2.968783     13.208605
 3950.0   -171.734949     80.688273      3.000471     13.444986
 4000.0   -177.902627     83.078902      3.036478     13.680279
 4050.0   -184.124611     85.605759      3.076374     13.914372
 4100.0   -190.398980     88.264793      3.119709     14.147145
 4150.0   -196.723425     91.051726      3.166062     14.378485
 4200.0   -203.093843     93.961116      3.215151     14.608312
 4250.0   -209.505467     96.987095      3.266746     14.836559
 4300.0   -215.952680    100.123259      3.320681     15.063175
 4350.0   -222.429706    103.363107      3.376802     15.288112
 4400.0   -228.930995    106.700289      3.434939     15.511317
 4450.0   -235.451020    110.128462      3.494921     15.732738
 4500.0   -241.984130    113.641173      3.556580     15.952323
 4550.0   -248.524713    117.232015      3.619748     16.170020
 4600.0   -255.067427    120.894875      3.684260     16.385780
 4650.0   -261.606758    124.623447      3.749949     16.599553
 4700.0   -268.136227    128.410361      3.816631     16.811271
 4750.0   -274.650096    132.249064      3.884135     17.020880
 4800.0   -281.146546    136.137343      3.952361     17.228396
 4850.0   -287.627067    140.076645      4.021267     17.433896
 4900.0   -294.102454    144.078716      4.090979     17.637628
 4950.0   -300.585456    148.157464      4.161657     17.839874
 5000.0   -307.087322    152.325137      4.233434     18.040889
 5050.0   -313.619025    156.593677      4.306440     18.240924
 5100.0   -320.191935    160.975470      4.380812     18.440235
 5150.0   -326.817499    165.482984      4.456686     18.639082
 5200.0   -333.507077    170.128578      4.534197     18.837723
 5250.0   -340.271994    174.924583      4.613481     19.036413
 5300.0   -347.123534    179.883327      4.694673     19.235409
 5350.0   -354.073033    185.017167      4.777909     19.434968
 5400.0   -361.132090    190.338579      4.863324     19.635350
 5450.0   -368.312118    195.859951      4.951055     19.836814
 5500.0   -375.623532    201.593198      5.041234     20.039602
 5550.0   -383.077431    207.550561      5.133996     20.243966
 5600.0   -390.688643    213.746048      5.229488     20.450222
 5650.0   -398.467656    220.191609      5.327841     20.658613
 5700.0   -406.403874    226.889192      5.429125     20.869023
 5750.0   -414.478602    233.836899      5.533382     21.081201
 5800.0   -422.661825    241.027464      5.640622     21.294701
 5850.0   -430.921370    248.452596      5.750845     21.509043
 5900.0   -439.227755    256.105280      5.864063     21.723791
 5950.0   -447.551992    263.978737      5.980287     21.938518
 6000.0   -455.864370    272.065845      6.099526     22.152784
 6050.0   -464.135049    280.359420      6.221789     22.366149
 6100.0   -472.334379    288.852367      6.347086     22.578175
 6150.0   -480.432748    297.537611      6.475427     22.788423
 6200.0   -488.400490    306.408050      6.606821     22.996454
 6250.0   -496.207931    315.456581      6.741278     23.201831
 6300.0   -503.825411    324.676103      6.878808     23.404115
 6350.0   -511.223273    334.059519      7.019420     23.602867
 6400.0   -518.371849    343.599729      7.163124     23.797648
 6450.0   -525.241477    353.289635      7.309930     23.988021
 6500.0   -531.802513    363.122136      7.459846     24.173548
 6550.0   -538.025300    373.090132      7.612883     24.353789
 6600.0   -543.880109    383.186530      7.769050     24.528305
 6650.0   -549.337259    393.404232      7.928358     24.696658
 6700.0   -554.367347    403.736116      8.090814     24.858412
 6750.0   -558.940781    414.175076      8.256428     25.013131
 6800.0   -563.026933    424.714102      8.425214     25.160362
 6850.0   -566.595899    435.346117      8.597184     25.299664
 6900.0   -569.621695    446.063681      8.772327     25.430648
 6950.0   -572.087631    456.858492      8.950579     25.553053
 7000.0   -574.010270    467.719160      9.131691     25.667070
 7050.0   -575.413828    478.633587      9.315371     25.772995
 7100.0   -576.319865    489.589920      9.501340     25.871087
 7150.0   -576.749458    500.576354      9.689325     25.961599
 7200.0   -576.724393    511.581014      9.879045     26.044795
 7250.0   -576.266587    522.592015     10.070222     26.120938
 7300.0   -575.397766    533.597489     10.262576     26.190291
 7350.0   -574.139621    544.585573     10.455830     26.253114
 7400.0   -572.513894    555.544398     10.649704     26.309670
 7450.0   -570.542338    566.462093     10.843921     26.360221
 7500.0   -568.246690    577.326790     11.038201     26.405029
 7550.0   -565.648686    588.126620     11.232266     26.444355
 7600.0   -562.770065    598.849714     11.425837     26.478462
 7650.0   -559.632568    609.484205     11.618635     26.507612
 7700.0   -556.257932    620.018222     11.810383     26.532067
 7750.0   -552.667897    630.439897     12.000801     26.552089
 7800.0   -548.884201    640.737362     12.189611     26.567939
 7850.0   -544.928584    650.898748     12.376533     26.579880
 7900.0   -540.822785    660.912186     12.561290     26.588174
 7950.0   -536.588542    670.765807     12.743603     26.593083
 8000.0   -532.247595    680.447743     12.923193     26.594868
 8050.0   -527.821682    689.946125     13.099782     26.593793
 8100.0   -523.332543    699.249084     13.273090     26.590118
 8150.0   -518.801916    708.344751     13.442840     26.584106
 8200.0   -514.251541    717.221258     13.608752     26.576018
 8250.0   -509.703157    725.866735     13.770548     26.566118
 8300.0   -505.178500    734.269315     13.927950     26.554666
 8350.0   -500.699309    742.417131     14.080679     26.541925
 8400.0   -496.287332    750.298306     14.228455     26.528156
 8450.0   -491.964312    757.900969     14.371000     26.513623
 8500.0   -487.751950    765.213281     14.508037     26.498586
 8550.0   -483.671976    772.223381     14.639287     26.483308
 8600.0   -479.746264    778.919290     14.764469     26.468051
 8650.0   -475.996589    785.289111     14.883304     26.453078
 8700.0   -472.444186    791.321382     14.995521     26.438646
 8750.0   -469.110658    797.004343     15.100844     26.425016
 8800.0   -466.019628    802.324609     15.198963     26.412469
 8850.0   -463.192971    807.270201     15.289596     26.401267
 8900.0   -460.643560    811.836388     15.372618     26.391584
 8950.0   -458.379093    816.022600     15.447991     26.383540
 9000.0   -456.395583    819.837677     15.515879     26.377138
 9050.0   -454.686699    823.292341     15.576488     26.372357
 9100.0   -453.248430    826.395450     15.629982     26.369199
 9150.0   -452.077190    829.155518     15.676518     26.367670
 9200.0   -451.168771    831.581561     15.716265     26.367772
 9250.0   -450.518850    833.682686     15.749393     26.369503
 9300.0   -450.123273    835.467865     15.776068     26.372864
 9350.0   -449.977915    836.946048     15.796457     26.377856
 9400.0   -450.078606    838.126218     15.810728     26.384481
 9450.0   -450.421169    839.017366     15.819048     26.392739
 9500.0   -451.001437    839.628474     15.821585     26.402631
 9550.0   -451.815248    839.968520     15.818505     26.414158
 9600.0   -452.858435    840.046488     15.809977     26.427320
 9650.0   -454.126831    839.871359     15.796168     26.442119
 9700.0   -455.616269    839.452116     15.777244     26.458555
 9750.0   -457.322583    838.797739     15.753373     26.476629
 9800.0   -459.241606    837.917211     15.724723     26.496341
 9850.0   -461.369173    836.819514     15.691461     26.517693
 9900.0   -463.701116    835.513630     15.653755     26.540686
 9950.0   -466.233269    834.008540     15.611772     26.565320
10000.0   -468.961466    832.313227     15.565678     26.591596
10050.0   -471.881541    830.436672     15.515642     26.619515
10100.0   -474.989326    828.387858     15.461830     26.649078
10150.0   -478.280656    826.175765     15.404410     26.680285
10200.0   -481.751363    823.809376     15.343550     26.713138
10250.0   -485.397282    821.297673     15.279417     26.747637
10300.0   -489.214246    818.649638     15.212178     26.783782
10350.0   -493.198089    815.874252     15.142001     26.821576
10400.0   -497.344644    812.980498     15.069052     26.861018
10450.0   -501.649744    809.977357     14.993500     26.902110
10500.0   -506.109224    806.873811     14.915511     26.944852
10550.0   -510.718917    803.678842     14.835253     26.989245
10600.0   -515.474656    800.401432     14.752894     27.035290
10650.0   -520.372275    797.050563     14.668600     27.082988
10700.0   -525.407608    793.635217     14.582539     27.132339
10750.0   -530.576487    790.164375     14.494879     27.183344
10800.0   -535.874747    786.647019     14.405786     27.236005
10850.0   -541.298221    783.092132     14.315428     27.290322
10900.0   -546.842743    779.508695     14.223972     27.346296
10950.0   -552.504146    775.905690     14.131586     27.403927
11000.0   -558.278264    772.292099     14.038438     27.463217
11050.0   -564.160931    768.676904     13.944694     27.524166
11100.0   -570.147979    765.069086     13.850522     27.586776
11150.0   -576.235243    761.477628     13.756089     27.651046
11200.0   -582.418555    757.911511     13.661562     27.716978
11250.0   -588.693750    754.379717     13.567109     27.784572
11300.0   -595.056662    750.891229     13.472898     27.853830
11350.0   -601.503123    747.455028     13.379095     27.924752
11400.0   -608.028967    744.080095     13.285868     27.997339
11450.0   -614.630028    740.775413     13.193385     28.071592
11500.0   -621.302139    737.549964     13.101812     28.147512
11550.0   -628.041134    734.412730     13.011317     28.225099
11600.0   -634.842847    731.372692     12.922067     28.304355
11650.0   -641.703111    728.438832     12.834230     28.385280
11700.0   -648.617759    725.620132     12.747973     28.467874
11750.0   -655.582625    722.925575     12.663464     28.552139
11800.0   -662.593543    720.364141     12.580869     28.638076
11850.0   -669.646346    717.944813     12.500356     28.725685
11900.0   -676.736868    715.676572     12.422093     28.814968
11950.0   -683.860942    713.568401     12.346247     28.905925
12000.0   -691.014402    711.629282     12.272985     28.998556
12050.0   -698.193082    709.868195     12.202474     29.092863
12100.0   -705.392814    708.294124     12.134882     29.188846
12150.0   -712.609433    706.916050     12.070377     29.286507
12200.0   -719.838772    705.742955     12.009125     29.385846
12250.0   -727.076665    704.783820     11.951294     29.486864
12300.0   -734.318945    704.047628     11.897051     29.589562
12350.0   -741.561445    703.543361     11.846564     29.693940
12400.0   -748.800000    703.280000     11.800000     29.800000
12450.0   -756.034208    703.265289     11.757483     29.907766
12500.0   -763.278731    703.502020     11.718962     30.017360
12550.0   -770.551994    703.991747     11.684344     30.128926
12600.0   -777.872425    704.736023     11.653536     30.242610
12650.0   -785.258450    705.736402     11.626443     30.358557
12700.0   -792.728496    706.994437     11.602971     30.476912
12750.0   -800.300989    708.511683     11.583027     30.597821
12800.0   -807.994356    710.289692     11.566518     30.721428
12850.0   -815.827023    712.330019     11.553350     30.847879
12900.0   -823.817417    714.634217     11.543428     30.977320
12950.0   -831.983964    717.203840     11.536659     31.109895
13000.0   -840.345091    720.040442     11.532949     31.245749
13050.0   -848.919225    723.145576     11.532205     31.385028
13100.0   -857.724792    726.520796     11.534333     31.527876
13150.0   -866.780219    730.167656     11.539239     31.674440
13200.0   -876.103931    734.087708     11.546829     31.824864
13250.0   -885.714354    738.282506     11.557010     31.979294
13300.0   -895.629922    742.753607     11.569688     32.137874
13350.0   -905.869063    747.502564     11.584769     32.300750
13400.0   -916.450175    752.530923     11.602160     32.468067
13450.0   -927.391676    757.840235     11.621767     32.639970
13500.0   -938.712105    763.432086     11.643495     32.816606
13550.0   -950.429918    769.308036     11.667251     32.998120
13600.0   -962.563124    775.469524     11.692942     33.184652
13650.0   -975.130039    781.918071     11.720475     33.376347
13700.0   -988.150643    788.655666     11.749753     33.573366
13750.0  -1001.643716    795.683961     11.780683     33.775858
13800.0  -1015.621576    803.002803     11.813179     33.983906
13850.0  -1030.087730    810.609580     11.847166     34.197503
13900.0  -1045.016898    818.493639     11.882610     34.416351
13950.0  -1060.377461    826.642557     11.919483     34.640086
14000.0  -1076.141228    835.044869     11.957754     34.868381
14050.0  -1092.280636    843.689285     11.997390     35.100913
14100.0  -1108.767203    852.564257     12.038360     35.337350
14150.0  -1125.572278    861.658192     12.080633     35.577360
14200.0  -1142.667457    870.959566     12.124178     35.820613
14250.0  -1160.024383    880.456866     12.168963     36.066777
14300.0  -1177.614630    890.138561     12.214956     36.315523
14350.0  -1195.409761    899.993118     12.262127     36.566520
14400.0  -1213.381356    910.009006     12.310445     36.819436
14450.0  -1231.501000    920.174697     12.359877     37.073942
14500.0  -1249.740273    930.478663     12.410393     37.329706
14550.0  -1268.070752    940.909373     12.461961     37.586399
14600.0  -1286.464017    951.455298     12.514549     37.843688
14650.0  -1304.891649    962.104908     12.568127     38.101243
14700.0  -1323.325226    972.846673     12.622664     38.358734
14750.0  -1341.736328    983.669065     12.678128     38.615830
14800.0  -1360.096535    994.560553     12.734487     38.872201
14850.0  -1378.377426   1005.509608     12.791710     39.127515
14900.0  -1396.550581   1016.504701     12.849766     39.381442
14950.0  -1414.587580   1027.534301     12.908623     39.633650
