#Lambda        Dielectric Constant          Refractive Index
# [nm]        [Real]        [Imag]        [Real]        [Imag]
   10.0      0.917922      0.011114      0.958100      0.005800
   15.0      0.836802      0.048153      0.915701      0.026249
   20.0      0.800737      0.174077      0.900269      0.096642
   25.0      0.727302      0.265674      0.866506      0.153306
   30.0      0.652460      0.370538      0.837521      0.221163
   35.0      0.572592      0.617294      0.841000      0.367000
   40.0      0.754281      0.527040      0.915000      0.288000
   45.0      0.512795      0.421774      0.767061      0.274932
   50.0      0.206444      0.501840      0.612000      0.410000
   55.0     -0.056756      0.750732      0.589955      0.636257
   60.0     -0.268918      1.000512      0.619316      0.807753
   65.0     -0.524875      1.415865      0.701861      1.008721
   70.0     -0.445880      2.079800      0.916841      1.134207
   75.0      0.030491      2.424897      1.108073      1.094210
   80.0      0.320146      2.305582      1.150641      1.001883
   85.0      0.294716      2.236955      1.129381      0.990346
   90.0      0.284239      2.352056      1.151814      1.021020
   95.0      0.409155      2.471124      1.207070      1.023613
  100.0      0.611875      2.437500      1.250000      0.975000
  105.0      0.775621      2.221393      1.250699      0.888053
  110.0      0.686160      1.799250      1.142802      0.787296
  115.0      0.310707      1.541153      0.970286      0.794194
  120.0     -0.093957      1.512054      0.842898      0.896939
  125.0     -0.453795      1.527626      0.754901      1.011784
  130.0     -0.820234      1.598970      0.698908      1.143951
  135.0     -1.127057      1.678283      0.668813      1.254716
  140.0     -1.506265      1.796460      0.647291      1.387561
  145.0     -1.853908      1.963908      0.650687      1.509073
  150.0     -2.191093      2.169717      0.668002      1.623980
  155.0     -2.523675      2.370100      0.685000      1.730000
  160.0     -2.828191      2.627773      0.718442      1.828791
  165.0     -3.110302      2.990368      0.775996      1.926799
  170.0     -3.180745      3.200795      0.816001      1.961271
  175.0     -3.370226      3.234773      0.806608      2.005191
  180.0     -3.719525      3.294285      0.790281      2.084248
  185.0     -4.138846      3.384703      0.777102      2.177778
  190.0     -4.611682      3.574033      0.781933      2.285392
  195.0     -5.078020      3.785496      0.792378      2.388671
  200.0     -5.589031      4.065000      0.813000      2.500000
  205.0     -6.077269      4.394552      0.843379      2.605496
  210.0     -6.625331      4.741697      0.872344      2.717775
  215.0     -7.180761      5.109981      0.903477      2.827890
  220.0     -7.832640      5.590853      0.946210      2.954304
  225.0     -8.494946      6.130197      0.995225      3.079843
  230.0     -9.170437      6.845763      1.066170      3.210473
  235.0     -9.813391      7.677246      1.150270      3.337158
  240.0    -10.387643      8.688921      1.255930      3.459020
  245.0    -10.827139      9.830732      1.377967      3.567342
  250.0    -11.040006     11.108559      1.519989      3.653872
  255.0    -11.105265     12.401641      1.664727      3.725080
  260.0    -11.044427     13.559473      1.794904      3.777045
  265.0    -10.832704     14.768767      1.934317      3.817676
  270.0    -10.468124     15.931351      2.072995      3.842552
  275.0    -10.134427     16.997675      2.197168      3.868049
  280.0     -9.593451     18.120541      2.335656      3.879267
  285.0     -8.834031     19.306458      2.489523      3.877206
  290.0     -7.802026     20.274574      2.638577      3.842287
  295.0     -6.585992     20.866352      2.765445      3.772737
  300.0     -5.521467     21.270281      2.867959      3.707862
  305.0     -4.379488     21.347716      2.951015      3.617432
  310.0     -3.260000     21.130200      3.010000      3.510000
  315.0     -2.580876     20.852722      3.035484      3.434595
  320.0     -2.143162     20.527703      3.041159      3.375057
  325.0     -1.785083     20.194873      3.040478      3.321024
  330.0     -1.573254     19.983780      3.039056      3.287807
  335.0     -1.453615     19.883099      3.039945      3.270305
  340.0     -1.323415     19.815871      3.044405      3.254481
  345.0     -1.177441     19.757013      3.050788      3.238018
  350.0     -1.037127     19.697599      3.056775      3.221961
  355.0     -0.925509     19.634883      3.060324      3.207973
  360.0     -0.854913     19.571423      3.060647      3.197260
  365.0     -0.810194     19.520353      3.059981      3.189621
  370.0     -0.776143     19.489776      3.060159      3.184450
  375.0     -0.751426     19.465553      3.060118      3.180526
  380.0     -0.740956     19.433185      3.058283      3.177115
  385.0     -0.770113     19.404351      3.053633      3.177233
  390.0     -0.870102     19.400292      3.045482      3.185128
  395.0     -1.028151     19.434601      3.035956      3.200801
  400.0     -1.187500     19.513200      3.030000      3.220000
  405.0     -1.304206     19.636443      3.031096      3.239101
  410.0     -1.393251     19.783745      3.036379      3.257737
  415.0     -1.484125     19.929620      3.041448      3.276363
  420.0     -1.593589     20.067931      3.044487      3.295850
  425.0     -1.719023     20.221998      3.047625      3.317701
  430.0     -1.856084     20.416658      3.053250      3.343396
  435.0     -1.998297     20.654755      3.062083      3.372594
  440.0     -2.137052     20.917145      3.073178      3.403140
  445.0     -2.263748     21.184171      3.085545      3.432838
  450.0     -2.373003     21.450109      3.099065      3.460806
  455.0     -2.463197     21.725523      3.114636      3.487699
  460.0     -2.532929     22.021896      3.133213      3.514257
  465.0     -2.583071     22.347820      3.155371      3.541174
  470.0     -2.620175     22.704669      3.180729      3.569020
  475.0     -2.651663     23.092711      3.208758      3.598350
  480.0     -2.683809     23.512241      3.239005      3.629634
  485.0     -2.706972     23.963994      3.272033      3.662176
  490.0     -2.699895     24.449022      3.309148      3.694434
  495.0     -2.641051     24.968386      3.351670      3.724843
  500.0     -2.509921     25.519323      3.400615      3.751708
  505.0     -2.292958     26.072572      3.454869      3.772409
  510.0     -1.979566     26.587643      3.512417      3.783936
  515.0     -1.559160     27.024006      3.571238      3.783277
  520.0     -1.024516     27.343317      3.629251      3.767753
  525.0     -0.405635     27.531422      3.683676      3.738392
  530.0      0.244307     27.589232      3.731299      3.698524
  535.0      0.871781     27.517885      3.768902      3.651515
  540.0      1.423318     27.318564      3.793270      3.600731
  545.0      1.860970     27.005666      3.802950      3.549513
  550.0      2.183437     26.624762      3.800644      3.501140
  555.0      2.394700     26.225923      3.789651      3.458884
  560.0      2.498744     25.859219      3.773274      3.426016
  565.0      2.499633     25.574459      3.754801      3.405782
  570.0      2.409073     25.397548      3.736623      3.399240
  575.0      2.252438     25.311624      3.719514      3.403528
  580.0      2.056521     25.295382      3.704082      3.415377
  585.0      1.848113     25.327519      3.690934      3.431517
  590.0      1.654008     25.386731      3.680677      3.448681
  595.0      1.496724     25.454687      3.673794      3.464087
  600.0      1.377031     25.528184      3.670118      3.477440
  605.0      1.288796     25.608820      3.669282      3.489234
  610.0      1.225882     25.698195      3.670917      3.499964
  615.0      1.182153     25.797908      3.674654      3.510122
  620.0      1.151475     25.909560      3.680124      3.520204
  625.0      1.128951     26.033753      3.686986      3.530557
  630.0      1.114359     26.167325      3.695006      3.540980
  635.0      1.108580     26.306232      3.703973      3.551142
  640.0      1.112491     26.446428      3.713678      3.560713
  645.0      1.126972     26.583866      3.723910      3.569362
  650.0      1.152901     26.714501      3.734459      3.576758
  655.0      1.191116     26.834355      3.745117      3.582579
  660.0      1.241417     26.941145      3.755721      3.586686
  665.0      1.302510     27.034375      3.766156      3.589132
  670.0      1.373051     27.113636      3.776308      3.589982
  675.0      1.451692     27.178517      3.786063      3.589301
  680.0      1.537089     27.228609      3.795309      3.587152
  685.0      1.627896     27.263500      3.803933      3.583599
  690.0      1.722767     27.282785      3.811820      3.578707
  695.0      1.820249     27.286449      3.818875      3.572573
  700.0      1.918677     27.275264      3.825034      3.565353
  705.0      2.016361     27.250094      3.830238      3.557216
  710.0      2.111613     27.211806      3.834427      3.548326
  715.0      2.202741     27.161262      3.837543      3.538850
  720.0      2.288057     27.099329      3.839527      3.528954
  725.0      2.365870     27.026872      3.840318      3.518805
  730.0      2.434491     26.944754      3.839858      3.508568
  735.0      2.492665     26.853442      3.838088      3.498351
  740.0      2.540279     26.752352      3.834948      3.488109
  745.0      2.577408     26.640728      3.830380      3.477770
  750.0      2.604128     26.517814      3.824325      3.467265
  755.0      2.620514     26.382855      3.816725      3.456521
  760.0      2.626640     26.235093      3.807521      3.445468
  765.0      2.622583     26.073772      3.796654      3.434035
  770.0      2.608417     25.898138      3.784064      3.422152
  775.0      2.584218     25.707433      3.769695      3.409746
  780.0      2.549873     25.501498      3.753512      3.396811
  785.0      2.504562     25.282413      3.735578      3.383577
  790.0      2.447300     25.052791      3.715980      3.370329
  795.0      2.377099     24.815240      3.694805      3.357353
  800.0      2.292975     24.572373      3.672137      3.344936
  805.0      2.193940     24.326798      3.648064      3.333364
  810.0      2.079009     24.081126      3.622672      3.322922
  815.0      1.947195     23.837968      3.596045      3.313897
  820.0      1.797513     23.599935      3.568272      3.306574
  825.0      1.628975     23.369636      3.539437      3.301240
  830.0      1.440720     23.149538      3.509630      3.298161
  835.0      1.233251     22.940518      3.478964      3.297388
  840.0      1.007921     22.742461      3.447570      3.298838
  845.0      0.766097     22.555238      3.415578      3.302425
  850.0      0.509147     22.378720      3.383120      3.308063
  855.0      0.238437     22.212777      3.350325      3.315668
  860.0     -0.044666     22.057281      3.317325      3.325153
  865.0     -0.338796     21.912101      3.284250      3.336433
  870.0     -0.642586     21.777110      3.251231      3.349422
  875.0     -0.954668     21.652178      3.218397      3.364036
  880.0     -1.273676     21.537175      3.185881      3.380188
  885.0     -1.598243     21.431972      3.153812      3.397794
  890.0     -1.927116     21.336389      3.122306      3.416766
  895.0     -2.259693     21.249949      3.091387      3.437018
  900.0     -2.595605     21.172071      3.061049      3.458461
  905.0     -2.934482     21.102172      3.031285      3.481004
  910.0     -3.275955     21.039671      3.002088      3.504560
  915.0     -3.619655     20.983985      2.973451      3.529040
  920.0     -3.965214     20.934533      2.945368      3.554355
  925.0     -4.312262     20.890733      2.917832      3.580416
  930.0     -4.660429     20.852002      2.890834      3.607134
  935.0     -5.009348     20.817760      2.864370      3.634420
  940.0     -5.358648     20.787422      2.838432      3.662186
  945.0     -5.707962     20.760409      2.813013      3.690342
  950.0     -6.056918     20.736138      2.788106      3.718799
  955.0     -6.405151     20.714028      2.763704      3.747470
  960.0     -6.752483     20.693687      2.739799      3.776297
  965.0     -7.099093     20.675075      2.716379      3.805283
  970.0     -7.445201     20.658192      2.693433      3.834436
  975.0     -7.791026     20.643038      2.670950      3.863767
  980.0     -8.136790     20.629613      2.648916      3.893283
  985.0     -8.482711     20.617917      2.627320      3.922996
  990.0     -8.829009     20.607950      2.606152      3.952913
  995.0     -9.175904     20.599712      2.585398      3.983044
 1000.0     -9.523616     20.593203      2.565047      4.013399
 1005.0     -9.872364     20.588423      2.545088      4.043986
 1010.0    -10.222369     20.585372      2.525509      4.074814
 1015.0    -10.573850     20.584049      2.506297      4.105894
 1020.0    -10.927027     20.584455      2.487442      4.137233
 1025.0    -11.282119     20.586589      2.468931      4.168842
 1030.0    -11.639347     20.590452      2.450752      4.200730
 1035.0    -11.998926     20.596044      2.432895      4.232905
 1040.0    -12.360904     20.603341      2.415352      4.265362
 1045.0    -12.725114     20.612298      2.398122      4.298078
 1050.0    -13.091373     20.622862      2.381205      4.331029
 1055.0    -13.459499     20.634985      2.364601      4.364188
 1060.0    -13.829309     20.648617      2.348310      4.397533
 1065.0    -14.200621     20.663706      2.332330      4.431039
 1070.0    -14.573252     20.680204      2.316663      4.464679
 1075.0    -14.947020     20.698059      2.301307      4.498431
 1080.0    -15.321743     20.717223      2.286263      4.532270
 1085.0    -15.697237     20.737645      2.271529      4.566170
 1090.0    -16.073321     20.759274      2.257106      4.600107
 1095.0    -16.449813     20.782062      2.242993      4.634057
 1100.0    -16.826529     20.805957      2.229191      4.667995
 1105.0    -17.203287     20.830910      2.215698      4.701896
 1110.0    -17.579905     20.856870      2.202514      4.735736
 1115.0    -17.956200     20.883789      2.189640      4.769489
 1120.0    -18.331990     20.911615      2.177074      4.803132
 1125.0    -18.707092     20.940298      2.164817      4.836640
 1130.0    -19.081337     20.969787      2.152867      4.869989
 1135.0    -19.454735     21.000011      2.141217      4.903175
 1140.0    -19.827436     21.030884      2.129851      4.936207
 1145.0    -20.199595     21.062317      2.118756      4.969096
 1150.0    -20.571367     21.094225      2.107916      5.001851
 1155.0    -20.942905     21.126519      2.097318      5.034482
 1160.0    -21.314364     21.159114      2.086947      5.066999
 1165.0    -21.685898     21.191921      2.076787      5.099413
 1170.0    -22.057661     21.224855      2.066826      5.131733
 1175.0    -22.429808     21.257827      2.057048      5.163970
 1180.0    -22.802493     21.290751      2.047438      5.196133
 1185.0    -23.175869     21.323540      2.037983      5.228233
 1190.0    -23.550092     21.356106      2.028667      5.260279
 1195.0    -23.925315     21.388364      2.019477      5.292281
 1200.0    -24.301694     21.420225      2.010397      5.324251
 1205.0    -24.679381     21.451602      2.001413      5.356196
 1210.0    -25.058531     21.482410      1.992511      5.388128
 1215.0    -25.439299     21.512559      1.983676      5.420057
 1220.0    -25.821839     21.541965      1.974894      5.451992
 1225.0    -26.206304     21.570538      1.966149      5.483944
 1230.0    -26.592850     21.598194      1.957429      5.515923
 1235.0    -26.981631     21.624843      1.948717      5.547938
 1240.0    -27.372800     21.650400      1.940000      5.580000
 1245.0    -27.766477     21.674823      1.931268      5.612117
 1250.0    -28.162636     21.698255      1.922529      5.644288
 1255.0    -28.561220     21.720883      1.913798      5.676511
 1260.0    -28.962167     21.742897      1.905089      5.708786
 1265.0    -29.365419     21.764485      1.896415      5.741108
 1270.0    -29.770915     21.785834      1.887790      5.773477
 1275.0    -30.178596     21.807133      1.879228      5.805890
 1280.0    -30.588401     21.828571      1.870742      5.838346
 1285.0    -31.000272     21.850335      1.862347      5.870842
 1290.0    -31.414149     21.872615      1.854057      5.903375
 1295.0    -31.829972     21.895598      1.845885      5.935945
 1300.0    -32.247680     21.919472      1.837844      5.968549
 1305.0    -32.667216     21.944426      1.829950      6.001185
 1310.0    -33.088518     21.970649      1.822215      6.033850
 1315.0    -33.511527     21.998328      1.814654      6.066544
 1320.0    -33.936183     22.027652      1.807279      6.099263
 1325.0    -34.362427     22.058809      1.800106      6.132005
 1330.0    -34.790199     22.091988      1.793148      6.164770
 1335.0    -35.219439     22.127376      1.786419      6.197554
 1340.0    -35.650087     22.165163      1.779932      6.230355
 1345.0    -36.082084     22.205536      1.773701      6.263172
 1350.0    -36.515371     22.248683      1.767740      6.296002
 1355.0    -36.949886     22.294793      1.762064      6.328843
 1360.0    -37.385572     22.344055      1.756685      6.361694
 1365.0    -37.822367     22.396656      1.751618      6.394551
 1370.0    -38.260212     22.452785      1.746876      6.427414
 1375.0    -38.699048     22.512631      1.742473      6.460280
 1380.0    -39.138817     22.576371      1.738423      6.493147
 1385.0    -39.579550     22.643822      1.734710      6.526012
 1390.0    -40.021393     22.714327      1.731287      6.558875
 1395.0    -40.464499     22.787198      1.728099      6.591733
 1400.0    -40.909023     22.861747      1.725095      6.624584
 1405.0    -41.355118     22.937285      1.722224      6.657426
 1410.0    -41.802937     23.013124      1.719432      6.690258
 1415.0    -42.252634     23.088576      1.716668      6.723077
 1420.0    -42.704363     23.162953      1.713880      6.755881
 1425.0    -43.158277     23.235567      1.711015      6.788669
 1430.0    -43.614530     23.305730      1.708021      6.821439
 1435.0    -44.073276     23.372753      1.704847      6.854189
 1440.0    -44.534668     23.435948      1.701440      6.886916
 1445.0    -44.998841     23.494675      1.697751      6.919618
 1450.0    -45.465658     23.549003      1.693786      6.952289
 1455.0    -45.934768     23.599551      1.689588      6.984916
 1460.0    -46.405819     23.646950      1.685206      7.017486
 1465.0    -46.878455     23.691831      1.680684      7.049989
 1470.0    -47.352321     23.734827      1.676070      7.082413
 1475.0    -47.827065     23.776569      1.671410      7.114745
 1480.0    -48.302331     23.817689      1.666749      7.146974
 1485.0    -48.777764     23.858818      1.662136      7.179087
 1490.0    -49.253011     23.900588      1.657615      7.211073
 1495.0    -49.727717     23.943631      1.653233      7.242920
 1500.0    -50.201528     23.988578      1.649037      7.274616
 1505.0    -50.674089     24.036061      1.645072      7.306150
 1510.0    -51.145046     24.086711      1.641386      7.337508
 1515.0    -51.614077     24.141116      1.638021      7.368681
 1520.0    -52.081351     24.199193      1.634971      7.399680
 1525.0    -52.547414     24.260340      1.632192      7.430529
 1530.0    -53.012822     24.323947      1.629638      7.461255
 1535.0    -53.478130     24.389400      1.627263      7.491885
 1540.0    -53.943894     24.456086      1.625022      7.522445
 1545.0    -54.410671     24.523394      1.622870      7.552961
 1550.0    -54.879015     24.590709      1.620762      7.583460
 1555.0    -55.349483     24.657420      1.618651      7.613969
 1560.0    -55.822630     24.722913      1.616493      7.644512
 1565.0    -56.299012     24.786577      1.614241      7.675118
 1570.0    -56.779185     24.847798      1.611852      7.705812
 1575.0    -57.263704     24.905963      1.609278      7.736621
 1580.0    -57.753126     24.960460      1.606475      7.767571
 1585.0    -58.248006     25.010677      1.603398      7.798689
 1590.0    -58.748900     25.056000      1.600000      7.830000
 1595.0    -59.256199     25.096019      1.596251      7.861524
 1600.0    -59.769636     25.131129      1.592178      7.893249
 1605.0    -60.288778     25.161928      1.587821      7.925155
 1610.0    -60.813194     25.189014      1.583221      7.957223
 1615.0    -61.342452     25.212985      1.578420      7.989434
 1620.0    -61.876121     25.234438      1.573458      8.021768
 1625.0    -62.413767     25.253971      1.568377      8.054205
 1630.0    -62.954959     25.272182      1.563217      8.086727
 1635.0    -63.499266     25.289668      1.558019      8.119313
 1640.0    -64.046255     25.307028      1.552824      8.151945
 1645.0    -64.595494     25.324858      1.547674      8.184602
 1650.0    -65.146552     25.343757      1.542609      8.217266
 1655.0    -65.698996     25.364322      1.537671      8.249917
 1660.0    -66.252395     25.387152      1.532900      8.282535
 1665.0    -66.806317     25.412842      1.528337      8.315101
 1670.0    -67.360329     25.441993      1.524023      8.347596
 1675.0    -67.914000     25.475200      1.520000      8.380000
 1680.0    -68.467003     25.512906      1.516297      8.412298
 1685.0    -69.019431     25.554924      1.512903      8.444494
 1690.0    -69.571482     25.600914      1.509795      8.476595
 1695.0    -70.123355     25.650534      1.506949      8.508609
 1700.0    -70.675247     25.703441      1.504344      8.540544
 1705.0    -71.227356     25.759295      1.501956      8.572408
 1710.0    -71.779882     25.817753      1.499762      8.604208
 1715.0    -72.333022     25.878473      1.497741      8.635951
 1720.0    -72.886973     25.941115      1.495869      8.667647
 1725.0    -73.441935     26.005336      1.494123      8.699303
 1730.0    -73.998106     26.070794      1.492480      8.730926
 1735.0    -74.555683     26.137148      1.490919      8.762524
 1740.0    -75.114865     26.204056      1.489415      8.794105
 1745.0    -75.675849     26.271176      1.487947      8.825676
 1750.0    -76.238835     26.338166      1.486491      8.857246
 1755.0    -76.804020     26.404686      1.485025      8.888823
 1760.0    -77.371603     26.470392      1.483526      8.920413
 1765.0    -77.941781     26.534943      1.481971      8.952026
 1770.0    -78.514753     26.597999      1.480338      8.983667
 1775.0    -79.090685     26.659253      1.478606      9.015345
 1780.0    -79.669508     26.718675      1.476773      9.047056
 1785.0    -80.251048     26.776357      1.474847      9.078791
 1790.0    -80.835129     26.832391      1.472834      9.110543
 1795.0    -81.421578     26.886870      1.470741      9.142305
 1800.0    -82.010219     26.939886      1.468575      9.174068
 1805.0    -82.600878     26.991532      1.466342      9.205825
 1810.0    -83.193378     27.041900      1.464050      9.237568
 1815.0    -83.787547     27.091082      1.461706      9.269289
 1820.0    -84.383208     27.139172      1.459315      9.300981
 1825.0    -84.980187     27.186261      1.456885      9.332635
 1830.0    -85.578309     27.232442      1.454423      9.364244
 1835.0    -86.177400     27.277807      1.451935      9.395800
 1840.0    -86.777283     27.322449      1.449428      9.427295
 1845.0    -87.377786     27.366460      1.446910      9.458722
 1850.0    -87.978731     27.409933      1.444387      9.490072
 1855.0    -88.579946     27.452960      1.441865      9.521338
 1860.0    -89.181254     27.495633      1.439352      9.552513
 1865.0    -89.782482     27.538046      1.436854      9.583587
 1870.0    -90.383454     27.580290      1.434378      9.614555
 1875.0    -90.983995     27.622458      1.431932      9.645407
 1880.0    -91.583931     27.664643      1.429521      9.676136
 1885.0    -92.183196     27.706909      1.427150      9.706739
 1890.0    -92.781969     27.749266      1.424819      9.737226
 1895.0    -93.380458     27.791714      1.422525      9.767607
 1900.0    -93.978874     27.834251      1.420267      9.797893
 1905.0    -94.577428     27.876880      1.418043      9.828094
 1910.0    -95.176330     27.919598      1.415851      9.858222
 1915.0    -95.775789     27.962407      1.413690      9.888286
 1920.0    -96.376016     28.005306      1.411558      9.918297
 1925.0    -96.977221     28.048296      1.409454      9.948267
 1930.0    -97.579615     28.091376      1.407375      9.978205
 1935.0    -98.183407     28.134547      1.405319     10.008122
 1940.0    -98.788807     28.177808      1.403286     10.038029
 1945.0    -99.396027     28.221159      1.401274     10.067937
 1950.0   -100.005276     28.264601      1.399280     10.097856
 1955.0   -100.616763     28.308134      1.397303     10.127797
 1960.0   -101.230701     28.351757      1.395342     10.157770
 1965.0   -101.847297     28.395470      1.393394     10.187786
 1970.0   -102.466764     28.439274      1.391458     10.217856
 1975.0   -103.089311     28.483169      1.389533     10.247990
 1980.0   -103.715148     28.527154      1.387616     10.278200
 1985.0   -104.344485     28.571230      1.385706     10.308495
 1990.0   -104.977532     28.615396      1.383801     10.338886
 1995.0   -105.614501     28.659653      1.381900     10.369384
 2000.0   -106.255600     28.704000      1.380000     10.400000
 2005.0   -106.901016     28.748453      1.378101     10.430742
 2010.0   -107.550840     28.793088      1.376206     10.461614
 2015.0   -108.205137     28.837997      1.374318     10.492617
 2020.0   -108.863975     28.883270      1.372441     10.523751
 2025.0   -109.527418     28.929000      1.370577     10.555019
 2030.0   -110.195533     28.975277      1.368732     10.586422
 2035.0   -110.868387     29.022193      1.366908     10.617960
 2040.0   -111.546045     29.069840      1.365108     10.649635
 2045.0   -112.228575     29.118308      1.363337     10.681449
 2050.0   -112.916042     29.167689      1.361598     10.713402
 2055.0   -113.608512     29.218075      1.359895     10.745497
 2060.0   -114.306052     29.269557      1.358230     10.777733
 2065.0   -115.008727     29.322226      1.356608     10.810113
 2070.0   -115.716605     29.376174      1.355032     10.842638
 2075.0   -116.429751     29.431492      1.353506     10.875309
 2080.0   -117.148232     29.488271      1.352032     10.908127
 2085.0   -117.872113     29.546604      1.350616     10.941093
 2090.0   -118.601462     29.606580      1.349259     10.974209
 2095.0   -119.336343     29.668293      1.347967     11.007477
 2100.0   -120.076825     29.731832      1.346742     11.040897
 2105.0   -120.822972     29.797290      1.345587     11.074470
 2110.0   -121.574851     29.864758      1.344507     11.108199
 2115.0   -122.332528     29.934328      1.343505     11.142083
 2120.0   -123.096069     30.006089      1.342585     11.176125
 2125.0   -123.865541     30.080135      1.341749     11.210326
 2130.0   -124.641011     30.156557      1.341002     11.244687
 2135.0   -125.422543     30.235445      1.340347     11.279209
 2140.0   -126.210200     30.316889      1.339788     11.313893
 2145.0   -127.003862     30.400886      1.339324     11.348735
 2150.0   -127.803175     30.487312      1.338953     11.383718
 2155.0   -128.607769     30.576036      1.338670     11.418830
 2160.0   -129.417274     30.666926      1.338470     11.454054
 2165.0   -130.231319     30.759852      1.338350     11.489376
 2170.0   -131.049535     30.854682      1.338306     11.524782
 2175.0   -131.871551     30.951285      1.338334     11.560255
 2180.0   -132.696997     31.049529      1.338429     11.595783
 2185.0   -133.525503     31.149284      1.338588     11.631348
 2190.0   -134.356699     31.250417      1.338806     11.666938
 2195.0   -135.190215     31.352799      1.339080     11.702536
 2200.0   -136.025681     31.456296      1.339405     11.738128
 2205.0   -136.862726     31.560778      1.339777     11.773700
 2210.0   -137.700980     31.666115      1.340192     11.809236
 2215.0   -138.540074     31.772173      1.340646     11.844721
 2220.0   -139.379637     31.878823      1.341136     11.880142
 2225.0   -140.219300     31.985933      1.341656     11.915481
 2230.0   -141.058691     32.093371      1.342203     11.950726
 2235.0   -141.897441     32.201006      1.342772     11.985861
 2240.0   -142.735180     32.308707      1.343361     12.020871
 2245.0   -143.571537     32.416343      1.343964     12.055742
 2250.0   -144.406143     32.523783      1.344577     12.090458
 2255.0   -145.238627     32.630894      1.345197     12.125005
 2260.0   -146.068619     32.737546      1.345819     12.159368
 2265.0   -146.895750     32.843608      1.346440     12.193532
 2270.0   -147.719648     32.948948      1.347055     12.227482
 2275.0   -148.539944     33.053435      1.347659     12.261203
 2280.0   -149.356268     33.156937      1.348250     12.294681
 2285.0   -150.168250     33.259324      1.348823     12.327900
 2290.0   -150.975519     33.360463      1.349374     12.360846
 2295.0   -151.777705     33.460225      1.349899     12.393504
 2300.0   -152.574499     33.558497      1.350394     12.425862
 2305.0   -153.366037     33.655322      1.350860     12.457924
 2310.0   -154.152653     33.750810      1.351299     12.489706
 2315.0   -154.934685     33.845072      1.351716     12.521219
 2320.0   -155.712470     33.938217      1.352111     12.552478
 2325.0   -156.486343     34.030355      1.352489     12.583497
 2330.0   -157.256643     34.121599      1.352851     12.614289
 2335.0   -158.023704     34.212057      1.353200     12.644867
 2340.0   -158.787864     34.301840      1.353540     12.675246
 2345.0   -159.549459     34.391059      1.353872     12.705438
 2350.0   -160.308827     34.479824      1.354200     12.735458
 2355.0   -161.066303     34.568246      1.354526     12.765319
 2360.0   -161.822224     34.656434      1.354852     12.795035
 2365.0   -162.576927     34.744499      1.355183     12.824619
 2370.0   -163.330749     34.832552      1.355519     12.854085
 2375.0   -164.084026     34.920703      1.355865     12.883446
 2380.0   -164.837094     35.009062      1.356222     12.912717
 2385.0   -165.590291     35.097740      1.356594     12.941910
 2390.0   -166.343952     35.186847      1.356983     12.971040
 2395.0   -167.098416     35.276494      1.357392     13.000119
 2400.0   -167.854017     35.366790      1.357823     13.029162
 2405.0   -168.611093     35.457847      1.358280     13.058182
 2410.0   -169.369980     35.549774      1.358764     13.087194
 2415.0   -170.131016     35.642683      1.359279     13.116209
 2420.0   -170.894536     35.736683      1.359828     13.145242
 2425.0   -171.660877     35.831885      1.360413     13.174307
 2430.0   -172.430376     35.928399      1.361036     13.203418
 2435.0   -173.203369     36.026335      1.361701     13.232587
 2440.0   -173.980194     36.125805      1.362410     13.261828
 2445.0   -174.761186     36.226918      1.363166     13.291156
 2450.0   -175.546682     36.329785      1.363972     13.320583
 2455.0   -176.337019     36.434517      1.364830     13.350123
 2460.0   -177.132534     36.541223      1.365743     13.379790
 2465.0   -177.933563     36.650013      1.366714     13.409598
 2470.0   -178.740442     36.761000      1.367745     13.439560
 2475.0   -179.553509     36.874292      1.368840     13.469689
 2480.0   -180.373100     36.990000      1.370000     13.500000
 2485.0   -181.199467     37.108206      1.371228     13.530502
 2490.0   -182.032527     37.228874      1.372523     13.561193
 2495.0   -182.872112     37.351941      1.373883     13.592065
 2500.0   -183.718053     37.477343      1.375305     13.623112
 2505.0   -184.570184     37.605016      1.376789     13.654328
 2510.0   -185.428336     37.734896      1.378332     13.685706
 2515.0   -186.292340     37.866919      1.379933     13.717238
 2520.0   -187.162030     38.001022      1.381589     13.748920
 2525.0   -188.037238     38.137139      1.383298     13.780743
 2530.0   -188.917795     38.275209      1.385060     13.812702
 2535.0   -189.803534     38.415165      1.386871     13.844789
 2540.0   -190.694286     38.556946      1.388730     13.876999
 2545.0   -191.589884     38.700486      1.390636     13.909324
 2550.0   -192.490160     38.845722      1.392585     13.941758
 2555.0   -193.394947     38.992589      1.394578     13.974295
 2560.0   -194.304075     39.141025      1.396610     14.006927
 2565.0   -195.217378     39.290965      1.398682     14.039648
 2570.0   -196.134687     39.442345      1.400790     14.072452
 2575.0   -197.055834     39.595102      1.402933     14.105331
 2580.0   -197.980653     39.749171      1.405109     14.138280
 2585.0   -198.908973     39.904488      1.407317     14.171291
 2590.0   -199.840629     40.060990      1.409554     14.204359
 2595.0   -200.775452     40.218613      1.411818     14.237476
 2600.0   -201.713273     40.377292      1.414108     14.270635
 2605.0   -202.653926     40.536964      1.416422     14.303831
 2610.0   -203.597242     40.697566      1.418758     14.337056
 2615.0   -204.543053     40.859032      1.421113     14.370304
 2620.0   -205.491192     41.021299      1.423487     14.403569
 2625.0   -206.441490     41.184304      1.425877     14.436843
 2630.0   -207.393780     41.347983      1.428281     14.470121
 2635.0   -208.347894     41.512270      1.430698     14.503395
 2640.0   -209.303663     41.677103      1.433126     14.536658
 2645.0   -210.260921     41.842418      1.435562     14.569905
 2650.0   -211.219499     42.008151      1.438006     14.603129
 2655.0   -212.179229     42.174237      1.440454     14.636323
 2660.0   -213.139943     42.340614      1.442906     14.669480
 2665.0   -214.101473     42.507216      1.445359     14.702594
 2670.0   -215.063653     42.673981      1.447811     14.735658
 2675.0   -216.026312     42.840844      1.450261     14.768666
 2680.0   -216.989285     43.007741      1.452707     14.801610
 2685.0   -217.952402     43.174609      1.455147     14.834485
 2690.0   -218.915497     43.341383      1.457578     14.867284
 2695.0   -219.878400     43.508000      1.460000     14.900000
 2700.0   -220.840979     43.674406      1.462410     14.932628
 2705.0   -221.803239     43.840593      1.464809     14.965168
 2710.0   -222.765219     44.006562      1.467196     14.997622
 2715.0   -223.726959     44.172314      1.469571     15.029991
 2720.0   -224.688499     44.337851      1.471935     15.062278
 2725.0   -225.649877     44.503174      1.474288     15.094484
 2730.0   -226.611134     44.668286      1.476629     15.126611
 2735.0   -227.572309     44.833187      1.478958     15.158661
 2740.0   -228.533441     44.997880      1.481277     15.190635
 2745.0   -229.494571     45.162365      1.483584     15.222534
 2750.0   -230.455737     45.326645      1.485880     15.254362
 2755.0   -231.416980     45.490720      1.488165     15.286118
 2760.0   -232.378339     45.654593      1.490439     15.317806
 2765.0   -233.339853     45.818265      1.492702     15.349427
 2770.0   -234.301561     45.981738      1.494954     15.380982
 2775.0   -235.263505     46.145012      1.497195     15.412474
 2780.0   -236.225722     46.308091      1.499425     15.443903
 2785.0   -237.188253     46.470974      1.501645     15.475272
 2790.0   -238.151138     46.633665      1.503854     15.506583
 2795.0   -239.114415     46.796164      1.506052     15.537836
 2800.0   -240.078124     46.958473      1.508239     15.569035
 2805.0   -241.042305     47.120593      1.510417     15.600180
 2810.0   -242.006997     47.282526      1.512583     15.631274
 2815.0   -242.972241     47.444274      1.514740     15.662317
 2820.0   -243.938075     47.605839      1.516885     15.693312
 2825.0   -244.904539     47.767221      1.519021     15.724261
 2830.0   -245.871673     47.928422      1.521147     15.755165
 2835.0   -246.839515     48.089444      1.523262     15.786025
 2840.0   -247.808107     48.250289      1.525367     15.816844
 2845.0   -248.777487     48.410957      1.527462     15.847624
 2850.0   -249.747694     48.571451      1.529547     15.878365
 2855.0   -250.718769     48.731773      1.531623     15.909071
 2860.0   -251.690751     48.891923      1.533688     15.939741
 2865.0   -252.663680     49.051903      1.535743     15.970379
 2870.0   -253.637594     49.211715      1.537789     16.000986
 2875.0   -254.612535     49.371360      1.539825     16.031563
 2880.0   -255.588540     49.530841      1.541852     16.062113
 2885.0   -256.565650     49.690157      1.543869     16.092637
 2890.0   -257.543904     49.849312      1.545876     16.123136
 2895.0   -258.523343     50.008307      1.547874     16.153613
 2900.0   -259.504004     50.167142      1.549862     16.184069
 2905.0   -260.485929     50.325821      1.551842     16.214506
 2910.0   -261.469156     50.484343      1.553811     16.244926
 2915.0   -262.453725     50.642712      1.555772     16.275330
 2920.0   -263.439676     50.800928      1.557724     16.305720
 2925.0   -264.427048     50.958993      1.559666     16.336098
 2930.0   -265.415880     51.116908      1.561599     16.366465
 2935.0   -266.406213     51.274676      1.563524     16.396824
 2940.0   -267.398086     51.432297      1.565439     16.427175
 2945.0   -268.391538     51.589773      1.567346     16.457521
 2950.0   -269.386609     51.747106      1.569243     16.487864
 2955.0   -270.383338     51.904299      1.571132     16.518204
 2960.0   -271.381751     52.061370      1.573013     16.548544
 2965.0   -272.381864     52.218349      1.574886     16.578882
 2970.0   -273.383695     52.375267      1.576753     16.609221
 2975.0   -274.387259     52.532157      1.578613     16.639560
 2980.0   -275.392573     52.689048      1.580468     16.669899
 2985.0   -276.399654     52.845972      1.582318     16.700239
 2990.0   -277.408517     53.002960      1.584164     16.730580
 2995.0   -278.419180     53.160042      1.586007     16.760923
 3000.0   -279.431659     53.317251      1.587848     16.791268
 3050.0   -289.659939     54.903083      1.606282     17.094913
 3100.0   -300.087905     56.535637      1.625277     17.399178
 3150.0   -310.732013     58.245944      1.645564     17.704441
 3200.0   -321.608718     60.065038      1.667875     18.011083
 3250.0   -332.734477     62.023951      1.692941     18.319482
 3300.0   -344.122912     64.150670      1.721418     18.629950
 3350.0   -355.762141     66.445762      1.753269     18.942195
 3400.0   -367.626786     68.895285      1.788092     19.255603
 3450.0   -379.691348     71.485164      1.825484     19.569558
 3500.0   -391.930326     74.201324      1.865039     19.883445
 3550.0   -404.318219     77.029691      1.906353     20.196647
 3600.0   -416.829527     79.956191      1.949020     20.508549
 3650.0   -429.438752     82.966748      1.992636     20.818534
 3700.0   -442.132453     86.050638      2.036872     21.126257
 3750.0   -454.937505     89.208331      2.081650     21.432279
 3800.0   -467.889197     92.442634      2.126946     21.737349
 3850.0   -481.022819     95.756356      2.172735     22.042215
 3900.0   -494.373661     99.152305      2.218991     22.347629
 3950.0   -507.977011    102.633286      2.265692     22.654338
 4000.0   -521.868161    106.202109      2.312811     22.963092
 4050.0   -536.082398    109.861581      2.360324     23.274641
 4100.0   -550.655014    113.614509      2.408207     23.589734
 4150.0   -565.618624    117.463573      2.456437     23.909066
 4200.0   -580.852957    121.404163      2.505156     24.230261
 4250.0   -596.004937    125.420568      2.554748     24.546269
 4300.0   -610.720179    129.497034      2.605603     24.850004
 4350.0   -625.063746    133.638280      2.657654     25.142698
 4400.0   -639.520143    137.869497      2.710380     25.433893
 4450.0   -654.577286    142.216571      2.763266     25.733212
 4500.0   -670.262653    146.699295      2.816596     26.041480
 4550.0   -686.065182    151.330336      2.871589     26.349234
 4600.0   -701.444055    156.121924      2.929516     26.646442
 4650.0   -716.165230    161.074417      2.990814     26.928662
 4700.0   -730.761087    166.158506      3.053835     27.205426
 4750.0   -745.881729    171.340327      3.116616     27.488408
 4800.0   -762.128979    176.587027      3.177308     27.788420
 4850.0   -779.436530    181.879748      3.235713     28.104313
 4900.0   -797.250162    187.209852      3.292836     28.426203
 4950.0   -815.004534    192.568936      3.349710     28.744007
 5000.0   -832.209148    197.954424      3.407307     29.048996
 5050.0   -848.892417    203.404165      3.466197     29.341820
 5100.0   -865.302596    208.973135      3.526777     29.627106
 5150.0   -881.688736    214.716371      3.589442     29.909491
 5200.0   -898.286253    220.684747      3.654543     30.193348
 5250.0   -915.179536    226.883033      3.721918     30.480071
 5300.0   -932.358946    233.287295      3.791088     30.769200
 5350.0   -949.813425    239.873164      3.861568     31.060249
 5400.0   -967.531756    246.616212      3.932874     31.352729
 5450.0   -985.457971    253.475137      4.004439     31.645629
 5500.0  -1003.430477    260.368816      4.075504     31.936709
 5550.0  -1021.272450    267.210381      4.145281     32.223553
 5600.0  -1038.807065    273.912965      4.212982     32.503742
 5650.0  -1055.861248    280.391461      4.277837     32.774912
 5700.0  -1072.605305    286.721941      4.340584     33.039607
 5750.0  -1089.823977    293.268884      4.404665     33.309152
 5800.0  -1108.365787    300.426710      4.473799     33.595781
 5850.0  -1129.079260    308.589839      4.551709     33.911731
 5900.0  -1152.812920    318.152690      4.642116     34.269238
 5950.0  -1180.035099    329.341616      4.747178     34.675041
 6000.0  -1209.279135    341.527596      4.861102     35.107913
 6050.0  -1238.464315    353.810163      4.975569     35.537748
 6100.0  -1265.509676    365.288739      5.082263     35.934439
 6150.0  -1288.604337    375.178432      5.173925     36.271786
 6200.0  -1307.810128    383.496473      5.250662     36.550687
 6250.0  -1323.982276    390.599930      5.315695     36.783521
 6300.0  -1337.978862    396.847090      5.372261     36.982707
 6350.0  -1350.657972    402.596244      5.423593     37.160665
 6400.0  -1362.877688    408.205680      5.472927     37.329814
 6450.0  -1375.496094    414.033686      5.523497     37.502576
 6500.0  -1389.371274    420.438553      5.578538     37.691369
 6550.0  -1405.337648    427.768718      5.641196     37.908271
 6600.0  -1423.630684    436.123233      5.712364     38.156695
 6650.0  -1443.854810    445.338412      5.790563     38.430924
 6700.0  -1465.584373    455.238041      5.874202     38.724808
 6750.0  -1488.393716    465.645906      5.961687     39.032194
 6800.0  -1511.857186    476.385793      6.051428     39.346932
 6850.0  -1535.549127    487.281489      6.141830     39.662870
 6900.0  -1559.045057    498.157291      6.231308     39.973873
 6950.0  -1582.077590    508.905772      6.318901     40.276101
 7000.0  -1604.692954    519.555815      6.404899     40.570289
 7050.0  -1626.974625    530.152490      6.489744     40.857716
 7100.0  -1649.006082    540.740871      6.573876     41.139661
 7150.0  -1670.870801    551.366026      6.657735     41.417405
 7200.0  -1692.652259    562.073030      6.741760     41.692227
 7250.0  -1714.433935    572.906952      6.826394     41.965405
 7300.0  -1736.299263    583.912842      6.912075     42.238219
 7350.0  -1758.308589    595.124336      6.999125     42.511596
 7400.0  -1780.461177    606.544862      7.087558     42.785529
 7450.0  -1802.746308    618.172912      7.177332     43.059863
 7500.0  -1825.153260    630.006978      7.268409     43.334440
 7550.0  -1847.671313    642.045552      7.360749     43.609102
 7600.0  -1870.289744    654.287126      7.454312     43.883693
 7650.0  -1892.997834    666.730192      7.549060     44.158054
 7700.0  -1915.784861    679.373241      7.644953     44.432030
 7750.0  -1938.640104    692.214766      7.741951     44.705462
 7800.0  -1961.555955    705.251462      7.839997     44.978235
 7850.0  -1984.536531    718.473262      7.938970     45.250382
 7900.0  -2007.588708    731.868503      8.038732     45.521978
 7950.0  -2030.719364    745.425524      8.139145     45.793092
 8000.0  -2053.935376    759.132665      8.240072     46.063796
 8050.0  -2077.243622    772.978264      8.341376     46.334163
 8100.0  -2100.650978    786.950659      8.442918     46.604264
 8150.0  -2124.164322    801.038190      8.544561     46.874170
 8200.0  -2147.790531    815.229195      8.646168     47.143953
 8250.0  -2171.536483    829.512012      8.747601     47.413685
 8300.0  -2195.409026    843.875821      8.848731     47.683436
 8350.0  -2219.414709    858.319105      8.949534     47.953265
 8400.0  -2243.559888    872.846140      9.050046     48.223224
 8450.0  -2267.850920    887.461289      9.150308     48.493363
 8500.0  -2292.294159    902.168917      9.250357     48.763735
 8550.0  -2316.895961    916.973387      9.350233     49.034390
 8600.0  -2341.662681    931.879064      9.449975     49.305380
 8650.0  -2366.600674    946.890310      9.549622     49.576755
 8700.0  -2391.716295    962.011489      9.649212     49.848569
 8750.0  -2417.015901    977.246966      9.748786     50.120871
 8800.0  -2442.505845    992.601104      9.848380     50.393713
 8850.0  -2468.192484   1008.078266      9.948035     50.667146
 8900.0  -2494.078120   1023.684114     10.047805     50.941192
 8950.0  -2520.141759   1039.431767     10.147830     51.215699
 9000.0  -2546.354095   1055.337007     10.248282     51.490455
 9050.0  -2572.685809   1071.415618     10.349333     51.765246
 9100.0  -2599.107585   1087.683384     10.451154     52.039861
 9150.0  -2625.590106   1104.156089     10.553916     52.314085
 9200.0  -2652.104055   1120.849518     10.657792     52.587706
 9250.0  -2678.620115   1137.779455     10.762953     52.860511
 9300.0  -2705.108968   1154.961684     10.869571     53.132286
 9350.0  -2731.541298   1172.411989     10.977816     53.402821
 9400.0  -2757.887787   1190.146156     11.087862     53.671900
 9450.0  -2784.119119   1208.179967     11.199880     53.939312
 9500.0  -2810.205977   1226.529207     11.314040     54.204843
 9550.0  -2836.119199   1245.209545     11.430515     54.468282
 9600.0  -2861.846755   1264.223886     11.549339     54.729540
 9650.0  -2887.408986   1283.551018     11.670295     54.988761
 9700.0  -2912.829831   1303.167049     11.793137     55.246117
 9750.0  -2938.133228   1323.048090     11.917619     55.501777
 9800.0  -2963.343113   1343.170249     12.043495     55.755913
 9850.0  -2988.483426   1363.509635     12.170520     56.008693
 9900.0  -3013.578103   1384.042356     12.298447     56.260290
 9950.0  -3038.651084   1404.744522     12.427030     56.510873
10000.0  -3063.726305   1425.592241     12.556024     56.760613
10050.0  -3088.827704   1446.561623     12.685183     57.009680
10100.0  -3113.979221   1467.628777     12.814260     57.258244
10150.0  -3139.204791   1488.769810     12.943010     57.506477
10200.0  -3164.528354   1509.960833     13.071187     57.754548
10250.0  -3189.973847   1531.177954     13.198545     58.002628
10300.0  -3215.565208   1552.397282     13.324838     58.250887
10350.0  -3241.326025   1573.595292     13.449823     58.499494
10400.0  -3267.266238   1594.762669     13.573403     58.748526
10450.0  -3293.378064   1615.908561     13.695664     58.997940
10500.0  -3319.652537   1637.043348     13.816706     59.247689
10550.0  -3346.080687   1658.177411     13.936629     59.497722
10600.0  -3372.653547   1679.321132     14.055533     59.747992
10650.0  -3399.362149   1700.484890     14.173518     59.998448
10700.0  -3426.197526   1721.679068     14.290684     60.249041
10750.0  -3453.150708   1742.914046     14.407130     60.499723
10800.0  -3480.212729   1764.200204     14.522957     60.750443
10850.0  -3507.374620   1785.547925     14.638264     61.001154
10900.0  -3534.627413   1806.967587     14.753151     61.251806
10950.0  -3561.962141   1828.469573     14.867719     61.502349
11000.0  -3589.369835   1850.064264     14.982067     61.752734
11050.0  -3616.841528   1871.762040     15.096294     62.002913
11100.0  -3644.368252   1893.573282     15.210502     62.252837
11150.0  -3671.941039   1915.508371     15.324789     62.502455
11200.0  -3699.550921   1937.577688     15.439255     62.751719
11250.0  -3727.188930   1959.791614     15.554001     63.000580
11300.0  -3754.846098   1982.160529     15.669126     63.248988
11350.0  -3782.513457   2004.694816     15.784731     63.496895
11400.0  -3810.182039   2027.404853     15.900914     63.744250
11450.0  -3837.842877   2050.301023     16.017777     63.991006
11500.0  -3865.487003   2073.393707     16.135418     64.237113
11550.0  -3893.105447   2096.693284     16.253938     64.482522
11600.0  -3920.689244   2120.210137     16.373436     64.727183
11650.0  -3948.229424   2143.954646     16.494013     64.971048
11700.0  -3975.717021   2167.937191     16.615768     65.214067
11750.0  -4003.143065   2192.168155     16.738802     65.456191
11800.0  -4030.498589   2216.657917     16.863213     65.697370
11850.0  -4057.774625   2241.416858     16.989103     65.937557
11900.0  -4084.962205   2266.455360     17.116570     66.176702
11950.0  -4112.052362   2291.783803     17.245716     66.414754
12000.0  -4139.036127   2317.412569     17.376638     66.651667
12050.0  -4165.904533   2343.352037     17.509439     66.887389
12100.0  -4192.648611   2369.612590     17.644216     67.121872
12150.0  -4219.259394   2396.204608     17.781071     67.355067
12200.0  -4245.727913   2423.138471     17.920103     67.586925
12250.0  -4272.045201   2450.424561     18.061412     67.817396
12300.0  -4298.202291   2478.073258     18.205098     68.046432
12350.0  -4324.190213   2506.094945     18.351261     68.273983
12400.0  -4350.000000   2534.500000     18.500000     68.500000
