#Lambda        Dielectric Constant          Refractive Index
# [nm]        [Real]        [Imag]        [Real]        [Imag]
   10.0      0.910161      0.078111      0.954900      0.040900
   15.0      0.857128      0.208173      0.932518      0.111617
   20.0      0.916752      0.215936      0.964000      0.112000
   25.0      0.831537      0.279248      0.924294      0.151017
   30.0      0.725865      0.274702      0.866956      0.158633
   35.0      0.681318      0.405437      0.858434      0.236129
   40.0      0.645664      0.517538      0.858339      0.301480
   45.0      0.626668      0.630038      0.870425      0.361912
   50.0      0.616540      0.753019      0.891559      0.422300
   55.0      0.635035      0.806052      0.911370      0.442221
   60.0      0.563092      0.868040      0.893819      0.485584
   65.0      0.505151      1.003701      0.902434      0.556101
   70.0      0.487618      1.156853      0.933551      0.619581
   75.0      0.514507      1.284585      0.974244      0.659272
   80.0      0.548131      1.387740      1.010000      0.687000
   85.0      0.603733      1.474549      1.048111      0.703435
   90.0      0.650301      1.508075      1.070660      0.704273
   95.0      0.669439      1.525113      1.080512      0.705736
  100.0      0.654599      1.527818      1.076273      0.709777
  105.0      0.638565      1.531044      1.071796      0.714243
  110.0      0.570692      1.492812      1.041377      0.716751
  115.0      0.423620      1.483666      0.991584      0.748107
  120.0      0.238428      1.541065      0.948002      0.812678
  125.0      0.123638      1.663453      0.946443      0.878757
  130.0      0.024942      1.780881      0.950237      0.937058
  135.0     -0.056832      1.896958      0.959414      0.988603
  140.0     -0.137121      2.014945      0.970212      1.038398
  145.0     -0.214338      2.138775      0.983664      1.087133
  150.0     -0.269144      2.243077      0.997499      1.124359
  155.0     -0.302400      2.323000      1.010000      1.150000
  160.0     -0.369453      2.423383      1.020297      1.187629
  165.0     -0.447552      2.504833      1.023910      1.223103
  170.0     -0.516061      2.590811      1.030974      1.256546
  175.0     -0.591236      2.649738      1.030406      1.285727
  180.0     -0.709105      2.721219      1.025471      1.326849
  185.0     -0.861445      2.787217      1.013862      1.374581
  190.0     -0.996154      2.868028      1.009888      1.419884
  195.0     -1.161261      2.976704      1.008511      1.475875
  200.0     -1.371600      3.080000      1.000000      1.540000
  205.0     -1.555121      3.207678      1.002320      1.600217
  210.0     -1.744236      3.401937      1.019507      1.668428
  215.0     -1.958575      3.655471      1.046087      1.747274
  220.0     -2.120683      3.910626      1.078848      1.812335
  225.0     -2.266898      4.187041      1.116793      1.874610
  230.0     -2.428010      4.529333      1.164281      1.945151
  235.0     -2.512935      4.905066      1.224378      2.002983
  240.0     -2.545345      5.295528      1.290431      2.051983
  245.0     -2.496895      5.648725      1.356244      2.082356
  250.0     -2.393940      6.020857      1.429253      2.106386
  255.0     -2.225788      6.306240      1.493602      2.111029
  260.0     -2.040338      6.530808      1.549483      2.107466
  265.0     -1.841797      6.714706      1.600137      2.098128
  270.0     -1.694776      6.821634      1.633139      2.088522
  275.0     -1.512811      6.903457      1.666514      2.071245
  280.0     -1.368848      7.018161      1.700188      2.063887
  285.0     -1.221669      7.048058      1.722178      2.046301
  290.0     -1.091148      7.014757      1.733178      2.023653
  295.0     -1.015154      6.995924      1.739831      2.010517
  300.0     -0.952629      6.952481      1.741392      1.996248
  305.0     -0.923249      6.895777      1.736950      1.985020
  310.0     -0.927500      6.850800      1.730000      1.980000
  315.0     -0.941153      6.827684      1.724984      1.979058
  320.0     -0.987370      6.792479      1.714126      1.981324
  325.0     -1.076369      6.738437      1.695211      1.987492
  330.0     -1.189067      6.703646      1.676179      1.999676
  335.0     -1.321899      6.705937      1.660283      2.019516
  340.0     -1.473112      6.744962      1.647896      2.046565
  345.0     -1.609536      6.795160      1.639143      2.072772
  350.0     -1.710511      6.837267      1.633579      2.092696
  355.0     -1.813827      6.888306      1.629319      2.113866
  360.0     -1.948007      6.959992      1.624767      2.141856
  365.0     -2.093004      7.034998      1.619679      2.171726
  370.0     -2.228991      7.099916      1.614373      2.198981
  375.0     -2.361818      7.169354      1.610359      2.226015
  380.0     -2.500001      7.259366      1.609030      2.255799
  385.0     -2.635554      7.359081      1.609559      2.286042
  390.0     -2.755000      7.448196      1.610315      2.312654
  395.0     -2.862027      7.523561      1.610470      2.335817
  400.0     -2.977500      7.599200      1.610000      2.360000
  405.0     -3.116245      7.686874      1.609142      2.388554
  410.0     -3.265957      7.786315      1.609021      2.419633
  415.0     -3.407757      7.894220      1.610962      2.450120
  420.0     -3.535076      8.005822      1.614928      2.478580
  425.0     -3.660077      8.114128      1.618808      2.506139
  430.0     -3.796036      8.212354      1.620411      2.534107
  435.0     -3.945676      8.302900      1.619808      2.563081
  440.0     -4.101164      8.397344      1.619320      2.592943
  445.0     -4.254332      8.507365      1.621316      2.623540
  450.0     -4.400906      8.635337      1.626489      2.654475
  455.0     -4.541166      8.772752      1.633575      2.685071
  460.0     -4.675656      8.910488      1.641200      2.714633
  465.0     -4.806515      9.041934      1.648242      2.742898
  470.0     -4.939875      9.166740      1.654219      2.770674
  475.0     -5.082482      9.285517      1.658742      2.798933
  480.0     -5.240502      9.399123      1.661499      2.828586
  485.0     -5.412101      9.511763      1.663179      2.859705
  490.0     -5.589603      9.630096      1.665204      2.891751
  495.0     -5.765198      9.760832      1.669014      2.924168
  500.0     -5.932061      9.909399      1.675808      2.956441
  505.0     -6.090192     10.072309      1.685126      2.988321
  510.0     -6.242487     10.242300      1.695803      3.019668
  515.0     -6.391849     10.412095      1.706672      3.050347
  520.0     -6.541012     10.575002      1.716654      3.080238
  525.0     -6.690809     10.730799      1.725644      3.109437
  530.0     -6.840895     10.883293      1.734140      3.138167
  535.0     -6.990905     11.036354      1.742652      3.166658
  540.0     -7.140474     11.193843      1.751687      3.195135
  545.0     -7.289508     11.357888      1.761523      3.223740
  550.0     -7.438541     11.526517      1.771889      3.252410
  555.0     -7.588200     11.697170      1.782438      3.281056
  560.0     -7.739114     11.867286      1.792822      3.309584
  565.0     -7.891904     12.034324      1.802694      3.337904
  570.0     -8.046773     12.197495      1.811942      3.365988
  575.0     -8.203177     12.359151      1.820867      3.393920
  580.0     -8.360491     12.521966      1.829814      3.421794
  585.0     -8.518090     12.688619      1.839129      3.449705
  590.0     -8.675352     12.861785      1.849157      3.477748
  595.0     -8.831742     13.043789      1.860192      3.506005
  600.0     -8.987178     13.235164      1.872277      3.534491
  605.0     -9.141723     13.435874      1.885372      3.563198
  610.0     -9.295440     13.645884      1.899438      3.592122
  615.0     -9.448390     13.865158      1.914436      3.621254
  620.0     -9.600638     14.093660      1.930326      3.650589
  625.0     -9.751895     14.329191      1.946874      3.679969
  630.0     -9.900552     14.561398      1.963100      3.708675
  635.0    -10.044686     14.778009      1.977853      3.735851
  640.0    -10.182755     14.969816      1.990274      3.760849
  645.0    -10.315657     15.147547      2.001418      3.784358
  650.0    -10.445273     15.329916      2.013104      3.807607
  655.0    -10.573455     15.535067      2.027096      3.831786
  660.0    -10.701259     15.766235      2.043668      3.857187
  665.0    -10.828910     16.010946      2.061528      3.883153
  670.0    -10.956590     16.255979      2.079310      3.908980
  675.0    -11.084144     16.490982      2.095954      3.934089
  680.0    -11.209892     16.718549      2.111803      3.958463
  685.0    -11.331725     16.944919      2.127590      3.982241
  690.0    -11.447544     17.176311      2.144048      4.005563
  695.0    -11.556923     17.415863      2.161517      4.028562
  700.0    -11.662776     17.660566      2.179552      4.051361
  705.0    -11.768412     17.906682      2.197620      4.074080
  710.0    -11.877098     18.150492      2.215189      4.096837
  715.0    -11.988836     18.390011      2.232062      4.119538
  720.0    -12.098101     18.626187      2.248613      4.141732
  725.0    -12.198827     18.860252      2.265267      4.162933
  730.0    -12.284957     19.093438      2.282454      4.182654
  735.0    -12.352947     19.326110      2.300392      4.200601
  740.0    -12.405911     19.556352      2.318756      4.216979
  745.0    -12.448051     19.781874      2.337130      4.232078
  750.0    -12.483569     20.000385      2.355098      4.246187
  755.0    -12.516537     20.209745      2.372266      4.259590
  760.0    -12.549772     20.409260      2.388442      4.272508
  765.0    -12.585391     20.599045      2.403549      4.285132
  770.0    -12.625502     20.779224      2.417507      4.297651
  775.0    -12.672213     20.949922      2.430242      4.310254
  780.0    -12.727275     21.111785      2.441737      4.323124
  785.0    -12.791090     21.267435      2.452208      4.336416
  790.0    -12.863743     21.419957      2.461925      4.350279
  795.0    -12.945318     21.572437      2.471159      4.364864
  800.0    -13.035900     21.727960      2.480180      4.380319
  805.0    -13.134928     21.888812      2.489218      4.396701
  810.0    -13.239407     22.054262      2.498356      4.413718
  815.0    -13.345769     22.222869      2.507640      4.430995
  820.0    -13.450447     22.393190      2.517116      4.448157
  825.0    -13.549875     22.563787      2.526833      4.464829
  830.0    -13.640753     22.733308      2.536830      4.480666
  835.0    -13.722764     22.901416      2.547093      4.495625
  840.0    -13.797446     23.068406      2.557571      4.509859
  845.0    -13.866364     23.234579      2.568213      4.523520
  850.0    -13.931085     23.400240      2.578968      4.536764
  855.0    -13.993174     23.565691      2.589783      4.549742
  860.0    -14.054223     23.731017      2.600591      4.562599
  865.0    -14.115934     23.895378      2.611247      4.575436
  870.0    -14.180037     24.057687      2.621585      4.588339
  875.0    -14.248263     24.216860      2.631443      4.601398
  880.0    -14.322343     24.371810      2.640654      4.614701
  885.0    -14.404008     24.521451      2.649054      4.628337
  890.0    -14.494661     24.665043      2.656523      4.642383
  895.0    -14.593820     24.803833      2.663185      4.656854
  900.0    -14.700333     24.939774      2.669256      4.671742
  905.0    -14.813044     25.074823      2.674950      4.687040
  910.0    -14.930801     25.210936      2.680481      4.702740
  915.0    -15.052447     25.350068      2.686064      4.718834
  920.0    -15.176831     25.494159      2.691913      4.735315
  925.0    -15.302899     25.644129      2.698149      4.752138
  930.0    -15.429757     25.799253      2.704753      4.769199
  935.0    -15.556524     25.958658      2.711689      4.786391
  940.0    -15.682320     26.121474      2.718924      4.803604
  945.0    -15.806264     26.286827      2.726423      4.820730
  950.0    -15.927478     26.453846      2.734152      4.837661
  955.0    -16.045086     26.621660      2.742077      4.854288
  960.0    -16.158840     26.789535      2.750149      4.870560
  965.0    -16.269674     26.956997      2.758293      4.886529
  970.0    -16.378657     27.123598      2.766428      4.902261
  975.0    -16.486854     27.288893      2.774478      4.917821
  980.0    -16.595331     27.452436      2.782362      4.933273
  985.0    -16.705156     27.613781      2.790003      4.948683
  990.0    -16.817395     27.772480      2.797320      4.964116
  995.0    -16.933049     27.928135      2.804243      4.979633
 1000.0    -17.052229     28.080980      2.810784      4.995254
 1005.0    -17.174390     28.231713      2.817021      5.010966
 1010.0    -17.298977     28.381044      2.823032      5.026755
 1015.0    -17.425430     28.529682      2.828896      5.042607
 1020.0    -17.553193     28.678336      2.834691      5.058511
 1025.0    -17.681707     28.827715      2.840496      5.074451
 1030.0    -17.810414     28.978528      2.846389      5.090416
 1035.0    -17.938762     29.131473      2.852448      5.106390
 1040.0    -18.066344     29.286760      2.858705      5.122354
 1045.0    -18.192946     29.443973      2.865138      5.138275
 1050.0    -18.318367     29.602651      2.871718      5.154122
 1055.0    -18.442407     29.762334      2.878418      5.169863
 1060.0    -18.564864     29.922564      2.885211      5.185465
 1065.0    -18.685537     30.082879      2.892068      5.200898
 1070.0    -18.804226     30.242820      2.898962      5.216130
 1075.0    -18.920730     30.401927      2.905865      5.231127
 1080.0    -19.034859     30.559745      2.912750      5.245860
 1085.0    -19.146873     30.715984      2.919585      5.260336
 1090.0    -19.257616     30.870568      2.926334      5.274612
 1095.0    -19.367969     31.023438      2.932960      5.288750
 1100.0    -19.478814     31.174533      2.939425      5.302811
 1105.0    -19.591035     31.323792      2.945693      5.316855
 1110.0    -19.705513     31.471156      2.951728      5.330944
 1115.0    -19.823130     31.616564      2.957492      5.345138
 1120.0    -19.944769     31.759955      2.962948      5.359499
 1125.0    -20.071312     31.901269      2.968060      5.374087
 1130.0    -20.203582     32.040461      2.972794      5.388960
 1135.0    -20.341512     32.177709      2.977166      5.404121
 1140.0    -20.484353     32.313362      2.981229      5.419529
 1145.0    -20.631336     32.447774      2.985040      5.435144
 1150.0    -20.781695     32.581300      2.988654      5.450926
 1155.0    -20.934660     32.714295      2.992124      5.466833
 1160.0    -21.089465     32.847112      2.995507      5.482825
 1165.0    -21.245341     32.980106      2.998857      5.498861
 1170.0    -21.401520     33.113630      3.002230      5.514901
 1175.0    -21.557236     33.248041      3.005680      5.530903
 1180.0    -21.711719     33.383690      3.009263      5.546828
 1185.0    -21.864325     33.520900      3.013026      5.562641
 1190.0    -22.015316     33.659741      3.016966      5.578362
 1195.0    -22.165363     33.800172      3.021055      5.594034
 1200.0    -22.315135     33.942152      3.025265      5.609701
 1205.0    -22.465304     34.085640      3.029569      5.625404
 1210.0    -22.616542     34.230594      3.033939      5.641188
 1215.0    -22.769520     34.376973      3.038347      5.657096
 1220.0    -22.924909     34.524736      3.042767      5.673171
 1225.0    -23.083380     34.673842      3.047169      5.689455
 1230.0    -23.245605     34.824249      3.051527      5.705993
 1235.0    -23.412254     34.975915      3.055814      5.722827
 1240.0    -23.584000     35.128800      3.060000      5.740000
 1245.0    -23.761286     35.282856      3.064067      5.757541
 1250.0    -23.943653     35.438014      3.068026      5.775415
 1255.0    -24.130411     35.594196      3.071897      5.793574
 1260.0    -24.320874     35.751326      3.075699      5.811968
 1265.0    -24.514354     35.909329      3.079450      5.830548
 1270.0    -24.710163     36.068127      3.083172      5.849265
 1275.0    -24.907615     36.227646      3.086882      5.868071
 1280.0    -25.106020     36.387807      3.090601      5.886915
 1285.0    -25.304693     36.548536      3.094348      5.905749
 1290.0    -25.502945     36.709756      3.098142      5.924523
 1295.0    -25.700088     36.871391      3.102002      5.943189
 1300.0    -25.895436     37.033364      3.105948      5.961698
 1305.0    -26.088300     37.195600      3.110000      5.980000
 1310.0    -26.278158     37.358046      3.114172      5.998058
 1315.0    -26.465145     37.520750      3.118462      6.015883
 1320.0    -26.649562     37.683784      3.122865      6.033498
 1325.0    -26.831709     37.847218      3.127372      6.050925
 1330.0    -27.011887     38.011125      3.131979      6.068188
 1335.0    -27.190396     38.175577      3.136679      6.085308
 1340.0    -27.367537     38.340645      3.141466      6.102310
 1345.0    -27.543609     38.506401      3.146332      6.119214
 1350.0    -27.718914     38.672917      3.151272      6.136045
 1355.0    -27.893752     38.840264      3.156279      6.152825
 1360.0    -28.068423     39.008514      3.161348      6.169577
 1365.0    -28.243227     39.177739      3.166471      6.186323
 1370.0    -28.418466     39.348010      3.171642      6.203086
 1375.0    -28.594439     39.519400      3.176855      6.219889
 1380.0    -28.771443     39.691978      3.182103      6.236755
 1385.0    -28.949625     39.865783      3.187384      6.253694
 1390.0    -29.128940     40.040806      3.192698      6.270703
 1395.0    -29.309327     40.217040      3.198046      6.287777
 1400.0    -29.490728     40.394473      3.203430      6.304912
 1405.0    -29.673084     40.573096      3.208850      6.322101
 1410.0    -29.856334     40.752899      3.214307      6.339342
 1415.0    -30.040419     40.933873      3.219803      6.356629
 1420.0    -30.225281     41.116007      3.225339      6.373957
 1425.0    -30.410861     41.299292      3.230916      6.391321
 1430.0    -30.597097     41.483719      3.236534      6.408717
 1435.0    -30.783932     41.669277      3.242195      6.426141
 1440.0    -30.971307     41.855957      3.247900      6.443586
 1445.0    -31.159161     42.043749      3.253650      6.461050
 1450.0    -31.347435     42.232644      3.259447      6.478526
 1455.0    -31.536071     42.422631      3.265290      6.496010
 1460.0    -31.725009     42.613700      3.271182      6.513498
 1465.0    -31.914183     42.805807      3.277122      6.530983
 1470.0    -32.103514     42.998830      3.283104      6.548458
 1475.0    -32.292921     43.192635      3.289122      6.565914
 1480.0    -32.482323     43.387090      3.295172      6.583344
 1485.0    -32.671639     43.582061      3.301248      6.600740
 1490.0    -32.860788     43.777416      3.307343      6.618092
 1495.0    -33.049688     43.973021      3.313453      6.635393
 1500.0    -33.238259     44.168745      3.319571      6.652635
 1505.0    -33.426419     44.364452      3.325693      6.669810
 1510.0    -33.614087     44.560012      3.331812      6.686909
 1515.0    -33.801183     44.755291      3.337923      6.703924
 1520.0    -33.987624     44.950155      3.344020      6.720848
 1525.0    -34.173331     45.144473      3.350098      6.737671
 1530.0    -34.358222     45.338110      3.356151      6.754386
 1535.0    -34.542215     45.530934      3.362173      6.770984
 1540.0    -34.725230     45.722813      3.368159      6.787458
 1545.0    -34.907185     45.913612      3.374103      6.803800
 1550.0    -35.088000     46.103200      3.380000      6.820000
 1555.0    -35.267620     46.291472      3.385845      6.836054
 1560.0    -35.446098     46.478438      3.391636      6.851965
 1565.0    -35.623512     46.664138      3.397375      6.867740
 1570.0    -35.799943     46.848612      3.403062      6.883385
 1575.0    -35.975469     47.031898      3.408696      6.898907
 1580.0    -36.150170     47.214037      3.414279      6.914312
 1585.0    -36.324125     47.395068      3.419809      6.929606
 1590.0    -36.497414     47.575029      3.425288      6.944797
 1595.0    -36.670115     47.753962      3.430716      6.959891
 1600.0    -36.842308     47.931904      3.436093      6.974894
 1605.0    -37.014073     48.108895      3.441418      6.989812
 1610.0    -37.185488     48.284976      3.446694      7.004652
 1615.0    -37.356633     48.460184      3.451918      7.019420
 1620.0    -37.527587     48.634560      3.457093      7.034124
 1625.0    -37.698430     48.808143      3.462217      7.048769
 1630.0    -37.869240     48.980973      3.467292      7.063362
 1635.0    -38.040098     49.153088      3.472317      7.077909
 1640.0    -38.211082     49.324529      3.477292      7.092417
 1645.0    -38.382271     49.495334      3.482219      7.106892
 1650.0    -38.553746     49.665544      3.487097      7.121341
 1655.0    -38.725585     49.835197      3.491926      7.135770
 1660.0    -38.897879     50.004333      3.496706      7.150185
 1665.0    -39.070735     50.172990      3.501438      7.164594
 1670.0    -39.244260     50.341207      3.506121      7.179002
 1675.0    -39.418561     50.509023      3.510754      7.193415
 1680.0    -39.593745     50.676477      3.515339      7.207841
 1685.0    -39.769919     50.843607      3.519874      7.222285
 1690.0    -39.947189     51.010452      3.524359      7.236754
 1695.0    -40.125664     51.177052      3.528795      7.251254
 1700.0    -40.305450     51.343443      3.533181      7.265792
 1705.0    -40.486654     51.509666      3.537517      7.280374
 1710.0    -40.669384     51.675760      3.541803      7.295006
 1715.0    -40.853745     51.841761      3.546039      7.309695
 1720.0    -41.039846     52.007711      3.550225      7.324447
 1725.0    -41.227794     52.173647      3.554359      7.339268
 1730.0    -41.417695     52.339608      3.558443      7.354165
 1735.0    -41.609656     52.505632      3.562477      7.369145
 1740.0    -41.803786     52.671760      3.566459      7.384213
 1745.0    -42.000190     52.838028      3.570390      7.399376
 1750.0    -42.198975     53.004477      3.574269      7.414640
 1755.0    -42.400250     53.171144      3.578097      7.430012
 1760.0    -42.604120     53.338068      3.581874      7.445498
 1765.0    -42.810693     53.505289      3.585599      7.461104
 1770.0    -43.020077     53.672845      3.589272      7.476838
 1775.0    -43.232348     53.840772      3.592893      7.492702
 1780.0    -43.447369     54.009090      3.596467      7.508692
 1785.0    -43.664905     54.177809      3.600000      7.524795
 1790.0    -43.884720     54.346941      3.603498      7.540999
 1795.0    -44.106579     54.516498      3.606966      7.557291
 1800.0    -44.330247     54.686489      3.610412      7.573661
 1805.0    -44.555489     54.856927      3.613841      7.590095
 1810.0    -44.782069     55.027823      3.617259      7.606582
 1815.0    -45.009751     55.199187      3.620673      7.623111
 1820.0    -45.238301     55.371032      3.624087      7.639668
 1825.0    -45.467483     55.543368      3.627509      7.656242
 1830.0    -45.697062     55.716207      3.630945      7.672822
 1835.0    -45.926802     55.889559      3.634400      7.689394
 1840.0    -46.156469     56.063437      3.637881      7.705948
 1845.0    -46.385825     56.237850      3.641393      7.722470
 1850.0    -46.614638     56.412812      3.644943      7.738950
 1855.0    -46.842670     56.588331      3.648537      7.755375
 1860.0    -47.069687     56.764421      3.652181      7.771732
 1865.0    -47.295453     56.941091      3.655881      7.788011
 1870.0    -47.519733     57.118354      3.659643      7.804199
 1875.0    -47.742292     57.296221      3.663473      7.820285
 1880.0    -47.962894     57.474702      3.667377      7.836255
 1885.0    -48.181303     57.653809      3.671361      7.852099
 1890.0    -48.397286     57.833553      3.675432      7.867803
 1895.0    -48.610605     58.013946      3.679595      7.883357
 1900.0    -48.821027     58.194998      3.683857      7.898749
 1905.0    -49.028315     58.376721      3.688223      7.913965
 1910.0    -49.232250     58.559122      3.692699      7.928995
 1915.0    -49.432853     58.742156      3.697283      7.943840
 1920.0    -49.630327     58.925738      3.701965      7.958507
 1925.0    -49.824882     59.109779      3.706736      7.973007
 1930.0    -50.016728     59.294194      3.711587      7.987347
 1935.0    -50.206074     59.478894      3.716509      8.001537
 1940.0    -50.393128     59.663792      3.721493      8.015586
 1945.0    -50.578101     59.848802      3.726529      8.029503
 1950.0    -50.761201     60.033836      3.731609      8.043296
 1955.0    -50.942637     60.218808      3.736723      8.056976
 1960.0    -51.122620     60.403629      3.741862      8.070551
 1965.0    -51.301358     60.588214      3.747016      8.084029
 1970.0    -51.479060     60.772474      3.752178      8.097421
 1975.0    -51.655936     60.956323      3.757337      8.110734
 1980.0    -51.832195     61.139673      3.762484      8.123979
 1985.0    -52.008046     61.322438      3.767610      8.137163
 1990.0    -52.183699     61.504530      3.772706      8.150296
 1995.0    -52.359362     61.685862      3.777763      8.163388
 2000.0    -52.535246     61.866347      3.782772      8.176446
 2005.0    -52.711559     62.045898      3.787723      8.189481
 2010.0    -52.888510     62.224428      3.792608      8.202500
 2015.0    -53.066310     62.401850      3.797417      8.215513
 2020.0    -53.245166     62.578076      3.802140      8.228530
 2025.0    -53.425289     62.753019      3.806769      8.241558
 2030.0    -53.606887     62.926593      3.811295      8.254607
 2035.0    -53.790171     63.098710      3.815709      8.267687
 2040.0    -53.975348     63.269282      3.820000      8.280806
 2045.0    -54.162629     63.438224      3.824161      8.293972
 2050.0    -54.352222     63.605447      3.828182      8.307196
 2055.0    -54.544338     63.770865      3.832053      8.320486
 2060.0    -54.739184     63.934390      3.835766      8.333850
 2065.0    -54.936971     64.095936      3.839312      8.347299
 2070.0    -55.137886     64.255431      3.842682      8.360841
 2075.0    -55.341957     64.412924      3.845879      8.374476
 2080.0    -55.549139     64.568515      3.848908      8.388206
 2085.0    -55.759388     64.722307      3.851778      8.402028
 2090.0    -55.972658     64.874401      3.854493      8.415944
 2095.0    -56.188907     65.024899      3.857061      8.429951
 2100.0    -56.408088     65.173903      3.859488      8.444050
 2105.0    -56.630157     65.321514      3.861781      8.458241
 2110.0    -56.855071     65.467835      3.863945      8.472521
 2115.0    -57.082783     65.612966      3.865989      8.486891
 2120.0    -57.313250     65.757009      3.867917      8.501350
 2125.0    -57.546427     65.900067      3.869737      8.515898
 2130.0    -57.782269     66.042241      3.871455      8.530534
 2135.0    -58.020732     66.183633      3.873077      8.545258
 2140.0    -58.261771     66.324344      3.874611      8.560068
 2145.0    -58.505342     66.464476      3.876062      8.574964
 2150.0    -58.751399     66.604130      3.877437      8.589947
 2155.0    -58.999899     66.743409      3.878742      8.605014
 2160.0    -59.250797     66.882415      3.879985      8.620166
 2165.0    -59.504048     67.021248      3.881171      8.635402
 2170.0    -59.759607     67.160011      3.882307      8.650721
 2175.0    -60.017431     67.298805      3.883399      8.666123
 2180.0    -60.277474     67.437732      3.884455      8.681607
 2185.0    -60.539691     67.576894      3.885480      8.697172
 2190.0    -60.804039     67.716393      3.886481      8.712819
 2195.0    -61.070473     67.856329      3.887464      8.728546
 2200.0    -61.338947     67.996805      3.888437      8.744353
 2205.0    -61.609418     68.137923      3.889404      8.760240
 2210.0    -61.881841     68.279784      3.890374      8.776205
 2215.0    -62.156171     68.422490      3.891352      8.792248
 2220.0    -62.432363     68.566143      3.892345      8.808369
 2225.0    -62.710374     68.710844      3.893360      8.824566
 2230.0    -62.990158     68.856696      3.894402      8.840840
 2235.0    -63.271671     69.003799      3.895479      8.857190
 2240.0    -63.554868     69.152255      3.896597      8.873615
 2245.0    -63.839704     69.302167      3.897762      8.890115
 2250.0    -64.126136     69.453636      3.898982      8.906688
 2255.0    -64.414118     69.606763      3.900261      8.923335
 2260.0    -64.703577     69.761610      3.901606      8.940053
 2265.0    -64.994375     69.918151      3.903016      8.956836
 2270.0    -65.286366     70.076346      3.904493      8.973676
 2275.0    -65.579403     70.236156      3.906036      8.990567
 2280.0    -65.873341     70.397542      3.907646      9.007501
 2285.0    -66.168032     70.560466      3.909323      9.024472
 2290.0    -66.463330     70.724889      3.911068      9.041472
 2295.0    -66.759090     70.890771      3.912880      9.058495
 2300.0    -67.055164     71.058073      3.914759      9.075533
 2305.0    -67.351406     71.226757      3.916707      9.092579
 2310.0    -67.647671     71.396784      3.918724      9.109627
 2315.0    -67.943810     71.568114      3.920809      9.126670
 2320.0    -68.239679     71.740710      3.922963      9.143700
 2325.0    -68.535131     71.914530      3.925187      9.160710
 2330.0    -68.830020     72.089538      3.927480      9.177693
 2335.0    -69.124198     72.265694      3.929843      9.194643
 2340.0    -69.417521     72.442958      3.932275      9.211552
 2345.0    -69.709840     72.621292      3.934779      9.228413
 2350.0    -70.001011     72.800657      3.937353      9.245220
 2355.0    -70.290887     72.981015      3.939998      9.261965
 2360.0    -70.579320     73.162325      3.942714      9.278641
 2365.0    -70.866166     73.344550      3.945502      9.295242
 2370.0    -71.151278     73.527649      3.948361      9.311759
 2375.0    -71.434508     73.711585      3.951293      9.328187
 2380.0    -71.715712     73.896318      3.954297      9.344518
 2385.0    -71.994742     74.081809      3.957373      9.360745
 2390.0    -72.271452     74.268020      3.960523      9.376861
 2395.0    -72.545696     74.454911      3.963746      9.392860
 2400.0    -72.817328     74.642443      3.967042      9.408733
 2405.0    -73.086201     74.830578      3.970412      9.424475
 2410.0    -73.352168     75.019276      3.973856      9.440078
 2415.0    -73.615084     75.208499      3.977374      9.455535
 2420.0    -73.874802     75.398207      3.980967      9.470838
 2425.0    -74.131175     75.588362      3.984634      9.485982
 2430.0    -74.384058     75.778924      3.988377      9.500959
 2435.0    -74.633304     75.969856      3.992195      9.515762
 2440.0    -74.878766     76.161117      3.996089      9.530384
 2445.0    -75.120299     76.352668      4.000059      9.544818
 2450.0    -75.357755     76.544472      4.004106      9.559057
 2455.0    -75.590989     76.736488      4.008228      9.573093
 2460.0    -75.819855     76.928679      4.012428      9.586921
 2465.0    -76.044205     77.121004      4.016705      9.600532
 2470.0    -76.263893     77.313425      4.021059      9.613921
 2475.0    -76.478774     77.505904      4.025490      9.627079
 2480.0    -76.688700     77.698400      4.030000      9.640000
 2485.0    -76.893586     77.890867      4.034587      9.652679
 2490.0    -77.093589     78.083219      4.039244      9.665123
 2495.0    -77.288925     78.275366      4.043966      9.677338
 2500.0    -77.479812     78.467213      4.048744      9.689334
 2505.0    -77.666466     78.658667      4.053572      9.701118
 2510.0    -77.849105     78.849637      4.058443      9.712698
 2515.0    -78.027946     79.040029      4.063348      9.724083
 2520.0    -78.203205     79.229750      4.068282      9.735281
 2525.0    -78.375101     79.418708      4.073237      9.746300
 2530.0    -78.543849     79.606810      4.078205      9.757147
 2535.0    -78.709668     79.793962      4.083180      9.767832
 2540.0    -78.872773     79.980073      4.088155      9.778362
 2545.0    -79.033383     80.165049      4.093122      9.788745
 2550.0    -79.191714     80.348797      4.098074      9.798989
 2555.0    -79.347983     80.531225      4.103004      9.809104
 2560.0    -79.502407     80.712239      4.107905      9.819096
 2565.0    -79.655204     80.891748      4.112770      9.828973
 2570.0    -79.806590     81.069657      4.117591      9.838745
 2575.0    -79.956783     81.245875      4.122362      9.848419
 2580.0    -80.105999     81.420309      4.127074      9.858003
 2585.0    -80.254456     81.592865      4.131722      9.867505
 2590.0    -80.402370     81.763451      4.136298      9.876934
 2595.0    -80.549960     81.931974      4.140794      9.886297
 2600.0    -80.697441     82.098341      4.145204      9.895603
 2605.0    -80.845031     82.262459      4.149521      9.904860
 2610.0    -80.992947     82.424236      4.153737      9.914075
 2615.0    -81.141406     82.583579      4.157845      9.923258
 2620.0    -81.290625     82.740395      4.161837      9.932416
 2625.0    -81.440822     82.894590      4.165708      9.941558
 2630.0    -81.592212     83.046073      4.169449      9.950691
 2635.0    -81.745014     83.194751      4.173054      9.959823
 2640.0    -81.899444     83.340530      4.176515      9.968963
 2645.0    -82.055719     83.483318      4.179825      9.978119
 2650.0    -82.214057     83.623022      4.182978      9.987299
 2655.0    -82.374675     83.759549      4.185965      9.996511
 2660.0    -82.537789     83.892806      4.188779     10.005763
 2665.0    -82.703616     84.022701      4.191415     10.015064
 2670.0    -82.872375     84.149140      4.193863     10.024421
 2675.0    -83.044281     84.272031      4.196118     10.033842
 2680.0    -83.219552     84.391282      4.198172     10.043337
 2685.0    -83.398405     84.506798      4.200018     10.052912
 2690.0    -83.581057     84.618488      4.201648     10.062576
 2695.0    -83.767724     84.726258      4.203057     10.072337
 2700.0    -83.958625     84.830017      4.204235     10.082203
 2705.0    -84.153977     84.929670      4.205177     10.092183
 2710.0    -84.353995     85.025125      4.205875     10.102284
 2715.0    -84.558897     85.116289      4.206322     10.112515
 2720.0    -84.768901     85.203070      4.206510     10.122883
 2725.0    -84.984224     85.285375      4.206434     10.133397
 2730.0    -85.205082     85.363110      4.206085     10.144065
 2735.0    -85.431692     85.436183      4.205456     10.154896
 2740.0    -85.664272     85.504502      4.204540     10.165896
 2745.0    -85.903039     85.567973      4.203330     10.177075
 2750.0    -86.148209     85.626503      4.201819     10.188440
 2755.0    -86.400000     85.680000      4.200000     10.200000
 2760.0    -86.658577     85.728418      4.197868     10.211761
 2765.0    -86.923900     85.771904      4.195430     10.223723
 2770.0    -87.195875     85.810648      4.192696     10.235884
 2775.0    -87.474410     85.844846      4.189676     10.248244
 2780.0    -87.759413     85.874688      4.186378     10.260800
 2785.0    -88.050791     85.900369      4.182814     10.273550
 2790.0    -88.348451     85.922080      4.178991     10.286494
 2795.0    -88.652300     85.940016      4.174921     10.299629
 2800.0    -88.962246     85.954368      4.170612     10.312955
 2805.0    -89.278197     85.965330      4.166074     10.326468
 2810.0    -89.600060     85.973094      4.161317     10.340169
 2815.0    -89.927742     85.977854      4.156350     10.354054
 2820.0    -90.261151     85.979802      4.151184     10.368124
 2825.0    -90.600193     85.979130      4.145827     10.382375
 2830.0    -90.944777     85.976033      4.140290     10.396807
 2835.0    -91.294810     85.970702      4.134582     10.411417
 2840.0    -91.650199     85.963331      4.128712     10.426205
 2845.0    -92.010852     85.954113      4.122691     10.441169
 2850.0    -92.376676     85.943239      4.116527     10.456307
 2855.0    -92.747578     85.930904      4.110231     10.471617
 2860.0    -93.123466     85.917300      4.103812     10.487098
 2865.0    -93.504247     85.902620      4.097280     10.502748
 2870.0    -93.889828     85.887056      4.090645     10.518566
 2875.0    -94.280118     85.870802      4.083915     10.534550
 2880.0    -94.675023     85.854051      4.077101     10.550699
 2885.0    -95.074451     85.836995      4.070212     10.567011
 2890.0    -95.478309     85.819827      4.063259     10.583484
 2895.0    -95.886505     85.802740      4.056250     10.600117
 2900.0    -96.298946     85.785927      4.049195     10.616908
 2905.0    -96.715539     85.769580      4.042103     10.633855
 2910.0    -97.136192     85.753894      4.034986     10.650958
 2915.0    -97.560812     85.739060      4.027851     10.668214
 2920.0    -97.989307     85.725271      4.020709     10.685622
 2925.0    -98.421583     85.712720      4.013570     10.703180
 2930.0    -98.857549     85.701600      4.006442     10.720886
 2935.0    -99.297112     85.692104      3.999336     10.738740
 2940.0    -99.740179     85.684425      3.992262     10.756739
 2945.0   -100.186658     85.678756      3.985228     10.774882
 2950.0   -100.636455     85.675289      3.978245     10.793168
 2955.0   -101.089479     85.674217      3.971321     10.811594
 2960.0   -101.545637     85.675733      3.964468     10.830159
 2965.0   -102.004836     85.680031      3.957694     10.848861
 2970.0   -102.466983     85.687302      3.951009     10.867700
 2975.0   -102.931987     85.697741      3.944423     10.886673
 2980.0   -103.399753     85.711538      3.937945     10.905778
 2985.0   -103.870191     85.728889      3.931584     10.925015
 2990.0   -104.343207     85.749984      3.925352     10.944381
 2995.0   -104.818708     85.775018      3.919257     10.963876
 3000.0   -105.296602     85.804183      3.913308     10.983496
 3050.0   -110.186784     86.365467      3.864016     11.186304
 3100.0   -115.214400     87.552000      3.840000     11.400000
 3150.0   -120.275656     89.462957      3.847009     11.621468
 3200.0   -125.221995     91.822787      3.875268     11.841483
 3250.0   -129.893668     94.262255      3.911120     12.049295
 3300.0   -134.155141     96.446042      3.942029     12.235514
 3350.0   -138.088828     98.344052      3.965556     12.403007
 3400.0   -141.892480    100.087714      3.984602     12.561130
 3450.0   -145.764834    101.809883      4.002118     12.719290
 3500.0   -149.851835    103.604313      4.020151     12.884303
 3550.0   -154.151457    105.455163      4.038228     13.055708
 3600.0   -158.635938    107.327534      4.055435     13.231780
 3650.0   -163.277517    109.186527      4.070858     13.410792
 3700.0   -168.039660    111.004240      4.083915     13.590939
 3750.0   -172.856509    112.776157      4.095125     13.770141
 3800.0   -177.656083    114.502646      4.105239     13.946263
 3850.0   -182.366404    116.184071      4.115009     14.117170
 3900.0   -186.918732    117.821557      4.125177     14.280832
 3950.0   -191.318898    119.433609      4.136276     14.437658
 4000.0   -195.647297    121.056118      4.148631     14.590499
 4050.0   -199.987566    122.725733      4.162559     14.742310
 4100.0   -204.423344    124.479099      4.178374     14.896045
 4150.0   -209.037444    126.352280      4.196384     15.054629
 4200.0   -213.865620    128.347932      4.216332     15.219220
 4250.0   -218.871963    130.417845      4.237108     15.388285
 4300.0   -224.014547    132.509536      4.257530     15.560064
 4350.0   -229.251448    134.570524      4.276414     15.732797
 4400.0   -234.540739    136.548327      4.292577     15.904727
 4450.0   -239.841266    138.391328      4.304859     16.074125
 4500.0   -245.135750    140.074761      4.312734     16.240279
 4550.0   -250.434847    141.605263      4.316428     16.403657
 4600.0   -255.750795    142.991256      4.316205     16.564796
 4650.0   -261.095832    144.241159      4.312333     16.724233
 4700.0   -266.482199    145.363393      4.305077     16.882505
 4750.0   -271.922133    146.366380      4.294704     17.040149
 4800.0   -277.428048    147.259434      4.281497     17.197701
 4850.0   -283.014744    148.064236      4.265983     17.355706
 4900.0   -288.698769    148.811501      4.248868     17.514713
 4950.0   -294.496711    149.532149      4.230862     17.675272
 5000.0   -300.425156    150.257100      4.212673     17.837930
 5050.0   -306.500692    151.017273      4.195011     18.003238
 5100.0   -312.739906    151.843590      4.178586     18.171744
 5150.0   -319.159386    152.766969      4.164107     18.343998
 5200.0   -325.774514    153.815662      4.152222     18.520501
 5250.0   -332.587354    154.988357      4.142915     18.701229
 5300.0   -339.591669    156.265335      4.135750     18.885832
 5350.0   -346.781100    157.626600      4.130288     19.073952
 5400.0   -354.149288    159.052156      4.126089     19.265235
 5450.0   -361.689873    160.522006      4.122712     19.459323
 5500.0   -369.396495    162.016155      4.119717     19.655860
 5550.0   -377.262795    163.514605      4.116664     19.854491
 5600.0   -385.282412    164.997360      4.113113     20.054859
 5650.0   -393.448961    166.444596      4.108627     20.256609
 5700.0   -401.753666    167.852115      4.103118     20.459439
 5750.0   -410.183475    169.243688      4.097124     20.663147
 5800.0   -418.724891    170.645987      4.091243     20.867537
 5850.0   -427.364418    172.085687      4.086077     21.072418
 5900.0   -436.088560    173.589460      4.082227     21.277595
 5950.0   -444.883819    175.183979      4.080293     21.482875
 6000.0   -453.736701    176.895918      4.080875     21.688065
 6050.0   -462.633708    178.751950      4.084575     21.892970
 6100.0   -471.561343    180.778748      4.091993     22.097399
 6150.0   -480.506112    183.002986      4.103729     22.301156
 6200.0   -489.454516    185.451336      4.120385     22.504048
 6250.0   -498.396864    188.134971      4.142214     22.705912
 6300.0   -507.337786    191.006674      4.168164     22.906694
 6350.0   -516.285287    194.005478      4.196875     23.106368
 6400.0   -525.247372    197.070418      4.226988     23.304905
 6450.0   -534.232046    200.140529      4.257142     23.502279
 6500.0   -543.247313    203.154845      4.285978     23.698464
 6550.0   -552.301210    206.054256      4.312175     23.893437
 6600.0   -561.402559    208.826658      4.335412     24.087346
 6650.0   -570.561013    211.509462      4.356421     24.280512
 6700.0   -579.786265    214.142445      4.375981     24.473266
 6750.0   -589.088007    216.765379      4.394876     24.665937
 6800.0   -598.475931    219.418040      4.413885     24.858856
 6850.0   -607.959729    222.140202      4.433791     25.052353
 6900.0   -617.549058    224.971516      4.455372     25.246756
 6950.0   -627.248807    227.935137      4.479084     25.442242
 7000.0   -637.054342    231.021286      4.504736     25.638677
 7050.0   -646.959901    234.216275      4.532062     25.835893
 7100.0   -656.959722    237.506412      4.560793     26.033722
 7150.0   -667.048042    240.878009      4.590665     26.231995
 7200.0   -677.219097    244.317376      4.621409     26.430544
 7250.0   -687.467126    247.810822      4.652759     26.629199
 7300.0   -697.786366    251.344670      4.684447     26.827793
 7350.0   -708.171562    254.911750      4.716323     27.026194
 7400.0   -718.618796    258.522109      4.748542     27.224370
 7450.0   -729.124371    262.188610      4.781306     27.422305
 7500.0   -739.684589    265.924115      4.814823     27.619981
 7550.0   -750.295751    269.741484      4.849294     27.817383
 7600.0   -760.954161    273.653582      4.884926     28.014494
 7650.0   -771.656119    277.673269      4.921922     28.211298
 7700.0   -782.397928    281.813407      4.960487     28.407779
 7750.0   -793.175890    286.086859      5.000825     28.603919
 7800.0   -803.987294    290.499266      5.043027     28.799700
 7850.0   -814.833147    295.029075      5.086748     28.995084
 7900.0   -825.715334    299.648327      5.131542     29.190031
 7950.0   -836.635738    304.329063      5.176965     29.384503
 8000.0   -847.596241    309.043326      5.222572     29.578458
 8050.0   -858.598728    313.763157      5.267915     29.771858
 8100.0   -869.645081    318.460598      5.312551     29.964663
 8150.0   -880.737184    323.107691      5.356033     30.156833
 8200.0   -891.876921    327.676479      5.397917     30.348328
 8250.0   -903.066174    332.139002      5.437756     30.539108
 8300.0   -914.306545    336.470199      5.475151     30.729137
 8350.0   -925.596519    340.677099      5.510208     30.918424
 8400.0   -936.932638    344.786709      5.543349     31.107001
 8450.0   -948.311415    348.826339      5.574998     31.294903
 8500.0   -959.729364    352.823298      5.605583     31.482165
 8550.0   -971.182997    356.804894      5.635529     31.668822
 8600.0   -982.668829    360.798437      5.665262     31.854907
 8650.0   -994.183373    364.831236      5.695209     32.040456
 8700.0  -1005.723142    368.930600      5.725794     32.225503
 8750.0  -1017.284649    373.123839      5.757444     32.410082
 8800.0  -1028.864407    377.438260      5.790586     32.594228
 8850.0  -1040.458931    381.901175      5.825644     32.777975
 8900.0  -1052.066136    386.535008      5.862968     32.961364
 8950.0  -1063.692017    391.334106      5.902458     33.144464
 9000.0  -1075.345445    396.282799      5.943859     33.327355
 9050.0  -1087.035297    401.365403      5.986913     33.510118
 9100.0  -1098.770449    406.566235      6.031362     33.692833
 9150.0  -1110.559778    411.869613      6.076948     33.875581
 9200.0  -1122.412159    417.259853      6.123415     34.058442
 9250.0  -1134.336471    422.721273      6.170505     34.241498
 9300.0  -1146.341588    428.238188      6.217960     34.424827
 9350.0  -1158.436387    433.794917      6.265523     34.608511
 9400.0  -1170.629745    439.375775      6.312936     34.792631
 9450.0  -1182.930538    444.965080      6.359943     34.977266
 9500.0  -1195.347642    450.547149      6.406286     35.162498
 9550.0  -1207.889890    456.106373      6.451708     35.348405
 9600.0  -1220.561194    461.635209      6.496081     35.535022
 9650.0  -1233.356179    467.141364      6.539518     35.722292
 9700.0  -1246.268435    472.634239      6.582162     35.910150
 9750.0  -1259.291551    478.123231      6.624151     36.098529
 9800.0  -1272.419118    483.617742      6.665627     36.287363
 9850.0  -1285.644727    489.127171      6.706730     36.476587
 9900.0  -1298.961967    494.660918      6.747601     36.666135
 9950.0  -1312.364429    500.228383      6.788379     36.855941
10000.0  -1325.845704    505.838965      6.829207     37.045939
10050.0  -1339.399381    511.502065      6.870224     37.236062
10100.0  -1353.019052    517.227081      6.911571     37.426246
10150.0  -1366.698305    523.023414      6.953389     37.616425
10200.0  -1380.430733    528.900464      6.995817     37.806531
10250.0  -1394.209924    534.867630      7.038997     37.996500
10300.0  -1408.029469    540.934313      7.083070     38.186266
10350.0  -1421.883019    547.109788      7.128173     38.375763
10400.0  -1435.766560    553.398557      7.174374     38.564950
10450.0  -1449.679114    559.798915      7.221644     38.753819
10500.0  -1463.619905    566.308744      7.269951     38.942364
10550.0  -1477.588157    572.925923      7.319260     39.130576
10600.0  -1491.583093    579.648335      7.369537     39.318451
10650.0  -1505.603939    586.473860      7.420750     39.505980
10700.0  -1519.649919    593.400380      7.472863     39.693157
10750.0  -1533.720257    600.425774      7.525844     39.879976
10800.0  -1547.814176    607.547925      7.579659     40.066430
10850.0  -1561.930901    614.764714      7.634274     40.252512
10900.0  -1576.069657    622.074020      7.689655     40.438215
10950.0  -1590.229667    629.473726      7.745768     40.623534
11000.0  -1604.410156    636.961712      7.802580     40.808460
11050.0  -1618.610348    644.535859      7.860057     40.992987
11100.0  -1632.829467    652.194049      7.918165     41.177109
11150.0  -1647.066737    659.934162      7.976871     41.360818
11200.0  -1661.321383    667.754079      8.036140     41.544109
11250.0  -1675.592628    675.651682      8.095939     41.726975
11300.0  -1689.879697    683.624851      8.156235     41.909408
11350.0  -1704.181814    691.671467      8.216993     42.091402
11400.0  -1718.498203    699.789411      8.278180     42.272950
11450.0  -1732.828089    707.976565      8.339762     42.454046
11500.0  -1747.170695    716.230810      8.401705     42.634683
11550.0  -1761.525246    724.550025      8.463976     42.814854
11600.0  -1775.890966    732.932093      8.526541     42.994553
11650.0  -1790.267079    741.374894      8.589365     43.173773
11700.0  -1804.652809    749.876310      8.652416     43.352506
11750.0  -1819.047381    758.434221      8.715660     43.530747
11800.0  -1833.450019    767.046508      8.779063     43.708489
11850.0  -1847.859946    775.711053      8.842590     43.885724
11900.0  -1862.276388    784.425736      8.906209     44.062447
11950.0  -1876.698567    793.188439      8.969886     44.238651
12000.0  -1891.125710    801.997042      9.033586     44.414328
12050.0  -1905.557039    810.849426      9.097276     44.589472
12100.0  -1919.991779    819.743473      9.160923     44.764077
12150.0  -1934.429153    828.677063      9.224493     44.938136
12200.0  -1948.868388    837.648077      9.287952     45.111641
12250.0  -1963.308705    846.654397      9.351265     45.284587
12300.0  -1977.749330    855.693904      9.414400     45.456967
12350.0  -1992.189487    864.764478      9.477323     45.628773
12400.0  -2006.628400    873.864000      9.540000     45.800000
