#Lambda        Dielectric Constant          Refractive Index
# [nm]        [Real]        [Imag]        [Real]        [Imag]
   30.0      0.814322      0.530103      0.957322      0.274215
   35.0      0.437068      0.438579      0.726701      0.301682
   40.0      0.220000      0.585000      0.650000      0.450000
   45.0      0.061655      0.785705      0.651447      0.602547
   50.0     -0.150000      1.120000      0.700000      0.800000
   55.0     -0.238577      1.424724      0.776588      0.917359
   60.0     -0.311855      1.920028      0.903690      1.062304
   65.0      0.029108      2.444209      1.112090      1.098904
   70.0      0.512973      2.551270      1.248081      1.022124
   75.0      0.807501      2.341354      1.281465      0.913577
   80.0      0.669038      2.054558      1.189468      0.863649
   85.0      0.455082      2.141511      1.149864      0.931194
   90.0      0.467853      2.268005      1.179754      0.961231
   95.0      0.367557      2.298671      1.161004      0.989875
  100.0      0.238700      2.348400      1.140000      1.030000
  105.0      0.136800      2.548173      1.159453      1.098865
  110.0      0.167246      2.788724      1.216768      1.146091
  115.0      0.333328      2.772000      1.250050      1.108747
  120.0      0.288985      2.604251      1.206068      1.079664
  125.0      0.097100      2.534695      1.147463      1.104355
  130.0     -0.118649      2.510696      1.094230      1.147153
  135.0     -0.346647      2.475228      1.037486      1.192882
  140.0     -0.651911      2.521800      0.988125      1.276090
  145.0     -0.915529      2.586948      0.956155      1.352711
  150.0     -1.271026      2.667838      0.917809      1.453691
  155.0     -1.574400      2.821000      0.910000      1.550000
  160.0     -1.921883      2.968135      0.898351      1.651906
  165.0     -2.276027      3.181347      0.904268      1.759005
  170.0     -2.640835      3.406235      0.913714      1.864157
  175.0     -2.967218      3.675007      0.936872      1.961076
  180.0     -3.327408      3.962886      0.961220      2.061625
  185.0     -3.685241      4.261602      0.986968      2.158809
  190.0     -4.018600      4.625809      1.026993      2.252197
  195.0     -4.394794      5.057781      1.073605      2.355390
  200.0     -4.676700      5.514400      1.130000      2.440000
  205.0     -4.923096      5.941995      1.181920      2.513977
  210.0     -5.216731      6.439499      1.239084      2.598472
  215.0     -5.469397      6.858630      1.285024      2.668476
  220.0     -5.743771      7.399265      1.346032      2.748725
  225.0     -6.004424      7.937059      1.404965      2.824597
  230.0     -6.177338      8.454793      1.465201      2.885157
  235.0     -6.373957      9.070840      1.535018      2.954717
  240.0     -6.578089      9.689249      1.602049      3.023959
  245.0     -6.730753     10.417514      1.684011      3.093052
  250.0     -6.664059     11.120142      1.774846      3.132755
  255.0     -6.607278     11.671940      1.844595      3.163797
  260.0     -6.663280     12.163517      1.898122      3.204114
  265.0     -6.769548     12.712170      1.953564      3.253576
  270.0     -6.928345     13.379120      2.017204      3.316252
  275.0     -6.974918     14.177842      2.100676      3.374583
  280.0     -6.886599     15.071965      2.200508      3.424708
  285.0     -6.627595     16.019497      2.313837      3.461488
  290.0     -6.128007     16.829762      2.427314      3.466930
  295.0     -5.458773     17.387219      2.526394      3.441135
  300.0     -4.860349     17.810171      2.607698      3.414779
  305.0     -4.295980     18.046622      2.669816      3.379873
  310.0     -3.811500     18.102800      2.710000      3.340000
  315.0     -3.559820     18.085276      2.726910      3.316014
  320.0     -3.489596     18.071378      2.730906      3.308693
  325.0     -3.538624     18.107367      2.730498      3.315759
  330.0     -3.692221     18.211034      2.728515      3.337212
  335.0     -3.899787     18.395603      2.729895      3.369290
  340.0     -4.112500     18.668755      2.738912      3.407922
  345.0     -4.376788     19.021022      2.751495      3.456541
  350.0     -4.739517     19.476181      2.766389      3.520530
  355.0     -5.177596     20.163767      2.796453      3.605113
  360.0     -5.600324     21.147118      2.852747      3.705875
  365.0     -5.778437     22.278134      2.935707      3.794380
  370.0     -5.568247     23.385923      3.038848      3.848155
  375.0     -5.183329     24.331963      3.138018      3.877008
  380.0     -4.888119     25.029592      3.210415      3.898031
  385.0     -4.801987     25.668049      3.264061      3.931668
  390.0     -4.981144     26.536298      3.318660      3.998721
  395.0     -5.290174     27.818748      3.394597      4.099185
  400.0     -5.402140     29.595051      3.512918      4.212244
  405.0     -5.023224     31.849240      3.686797      4.315624
  410.0     -4.015758     34.222290      3.899641      4.384960
  415.0     -2.281869     36.277426      4.127917      4.395704
  420.0      0.102845     37.750621      4.351947      4.340912
  425.0      2.798643     38.640880      4.557933      4.240448
  430.0      5.451190     38.972706      4.733026      4.116144
  435.0      7.880517     38.849078      4.874956      3.983334
  440.0     10.081025     38.451449      4.992029      3.850855
  445.0     12.055240     37.960114      5.092844      3.726972
  450.0     13.822564     37.413344      5.180814      3.610958
  455.0     15.422139     36.683298      5.253288      3.491565
  460.0     16.894163     35.632924      5.307276      3.356968
  465.0     18.255040     34.206763      5.341419      3.201883
  470.0     19.461725     32.553214      5.358439      3.037375
  475.0     20.462042     30.851986      5.361683      2.877021
  480.0     21.208022     29.273669      5.354409      2.733640
  485.0     21.709904     27.862641      5.338625      2.609561
  490.0     22.020440     26.571115      5.315431      2.499455
  495.0     22.193347     25.349201      5.285904      2.397820
  500.0     22.276989     24.153534      5.251031      2.299828
  505.0     22.282588     22.985962      5.211170      2.205349
  510.0     22.205631     21.867490      5.166415      2.116240
  515.0     22.041552     20.819192      5.116858      2.034367
  520.0     21.787316     19.860812      5.062681      1.961453
  525.0     21.456904     18.997339      5.005080      1.897668
  530.0     21.074887     18.224581      4.945876      1.842213
  535.0     20.665996     17.538206      4.886902      1.794273
  540.0     20.254929     16.933873      4.829987      1.753035
  545.0     19.856998     16.404223      4.776071      1.717625
  550.0     19.465356     15.934787      4.723993      1.687034
  555.0     19.069965     15.510067      4.672292      1.660230
  560.0     18.660785     15.114567      4.619503      1.636184
  565.0     18.227844     14.732887      4.564173      1.613872
  570.0     17.767458     14.358503      4.505760      1.592930
  575.0     17.287194     14.000778      4.445344      1.574166
  580.0     16.795785     13.670722      4.384178      1.558516
  585.0     16.301964     13.379345      4.323513      1.546912
  590.0     15.814465     13.137658      4.264600      1.540287
  595.0     15.341129     12.954380      4.208545      1.539361
  600.0     14.885249     12.826561      4.155714      1.543764
  605.0     14.448677     12.747546      4.106239      1.552783
  610.0     14.033262     12.710682      4.060252      1.565703
  615.0     13.640854     12.709315      4.017883      1.581811
  620.0     13.273305     12.736789      3.979265      1.600391
  625.0     12.931452     12.787152      3.944418      1.620820
  630.0     12.612324     12.857092      3.912942      1.642810
  635.0     12.312052     12.943920      3.884342      1.666153
  640.0     12.028357     13.044835      3.858284      1.690555
  645.0     11.769298     13.156314      3.835501      1.715149
  650.0     11.547079     13.274544      3.817150      1.738837
  655.0     11.373384     13.395649      3.804331      1.760545
  660.0     11.247802     13.514261      3.796721      1.779659
  665.0     11.157823     13.623524      3.792576      1.796028
  670.0     11.090411     13.716517      3.790090      1.809522
  675.0     11.034673     13.786888      3.787724      1.819972
  680.0     10.989370     13.830855      3.785133      1.827029
  685.0     10.955986     13.845361      3.782308      1.830297
  690.0     10.935983     13.827372      3.779240      1.829379
  695.0     10.927625     13.777140      3.775750      1.824399
  700.0     10.922800     13.701481      3.771312      1.816505
  705.0     10.912638     13.607989      3.765364      1.806969
  710.0     10.888318     13.504183      3.757343      1.797055
  715.0     10.844764     13.391870      3.746785      1.787191
  720.0     10.783246     13.263167      3.733395      1.776393
  725.0     10.705651     13.109254      3.716893      1.763544
  730.0     10.613863     12.921321      3.697001      1.747526
  735.0     10.507788     12.696154      3.673491      1.727958
  740.0     10.382106     12.445349      3.646273      1.706414
  745.0     10.230643     12.182917      3.615282      1.684787
  750.0     10.047225     11.922875      3.580450      1.664968
  755.0      9.826471     11.678292      3.541756      1.648710
  760.0      9.570660     11.453146      3.499610      1.636424
  765.0      9.286352     11.246334      3.454667      1.627772
  770.0      8.980151     11.056697      3.407585      1.622406
  775.0      8.658663     10.883077      3.359018      1.619978
  780.0      8.326826     10.724734      3.309466      1.620282
  785.0      7.983298     10.582510      3.258822      1.623646
  790.0      7.625257     10.457617      3.206839      1.630520
  795.0      7.251482     10.351485      3.153511      1.641281
  800.0      6.866094     10.266263      3.099633      1.656060
  805.0      6.474330     10.204251      3.046168      1.674932
  810.0      6.081425     10.167749      2.994079      1.697974
  815.0      5.692392     10.158263      2.944254      1.725141
  820.0      5.311102     10.173246      2.897203      1.755762
  825.0      4.941063     10.208868      2.853313      1.788969
  830.0      4.585500     10.261315      2.812927      1.823921
  835.0      4.244496     10.326960      2.775861      1.860066
  840.0      3.916181     10.402295      2.741607      1.897038
  845.0      3.598656     10.483812      2.709649      1.934471
  850.0      3.290020     10.568005      2.679474      1.972000
  855.0      2.988375     10.651365      2.650569      2.009260
  860.0      2.692004     10.731086      2.622497      2.045969
  865.0      2.399980     10.807334      2.595158      2.082200
  870.0      2.111582     10.881064      2.568540      2.118119
  875.0      1.826092     10.953232      2.542632      2.153891
  880.0      1.542790     11.024793      2.517421      2.189684
  885.0      1.260956     11.096702      2.492897      2.225662
  890.0      0.979893     11.169913      2.469058      2.261986
  895.0      0.699037     11.245367      2.445959      2.298770
  900.0      0.417872     11.323999      2.423679      2.336114
  905.0      0.135881     11.406746      2.402295      2.374119
  910.0     -0.147452     11.494544      2.381885      2.412885
  915.0     -0.432644     11.588329      2.362525      2.452511
  920.0     -0.720198     11.689022      2.344293      2.493096
  925.0     -1.009696     11.796594      2.327223      2.534555
  930.0     -1.299245     11.909484      2.311286      2.576516
  935.0     -1.586815     12.025992      2.296443      2.618577
  940.0     -1.870379     12.144420      2.282657      2.660340
  945.0     -2.147909     12.263070      2.269891      2.701404
  950.0     -2.417377     12.380242      2.258108      2.741369
  955.0     -2.676769     12.494248      2.247271      2.779837
  960.0     -2.925640     12.604447      2.237329      2.816677
  965.0     -3.166514     12.712176      2.228209      2.852258
  970.0     -3.402239     12.818996      2.219834      2.887004
  975.0     -3.635668     12.926464      2.212126      2.921340
  980.0     -3.869650     13.036139      2.205010      2.955690
  985.0     -4.107038     13.149581      2.198408      2.990481
  990.0     -4.350682     13.268348      2.192244      3.026136
  995.0     -4.603187     13.393883      2.186446      3.063045
 1000.0     -4.863763     13.526022      2.181028      3.101113
 1005.0     -5.129135     13.663428      2.176061      3.139889
 1010.0     -5.395975     13.804737      2.171618      3.178915
 1015.0     -5.660953     13.948587      2.167774      3.217734
 1020.0     -5.920741     14.093613      2.164601      3.255885
 1025.0     -6.172009     14.238452      2.162174      3.292913
 1030.0     -6.411428     14.381739      2.160566      3.328358
 1035.0     -6.635715     14.522124      2.159848      3.361767
 1040.0     -6.843932     14.658797      2.159991      3.392986
 1045.0     -7.038522     14.791737      2.160818      3.422286
 1050.0     -7.222191     14.920986      2.162144      3.449973
 1055.0     -7.397649     15.046584      2.163779      3.476353
 1060.0     -7.567600     15.168571      2.165538      3.501730
 1065.0     -7.734754     15.286987      2.167233      3.526410
 1070.0     -7.901817     15.401873      2.168676      3.550699
 1075.0     -8.071497     15.513269      2.169680      3.574903
 1080.0     -8.246469     15.621218      2.170060      3.599323
 1085.0     -8.428030     15.725854      2.169740      3.624115
 1090.0     -8.615588     15.827435      2.168790      3.649234
 1095.0     -8.808413     15.926228      2.167290      3.674621
 1100.0     -9.005778     16.022503      2.165322      3.700216
 1105.0     -9.206952     16.116526      2.162967      3.725959
 1110.0     -9.411208     16.208565      2.160306      3.751791
 1115.0     -9.617816     16.298888      2.157421      3.777654
 1120.0     -9.826048     16.387762      2.154391      3.803486
 1125.0    -10.035175     16.475456      2.151298      3.829229
 1130.0    -10.244497     16.562233      2.148221      3.854826
 1135.0    -10.453787     16.648286      2.145196      3.880264
 1140.0    -10.663200     16.733753      2.142223      3.905566
 1145.0    -10.872903     16.818769      2.139304      3.930756
 1150.0    -11.083062     16.903469      2.136439      3.955859
 1155.0    -11.293844     16.987990      2.133628      3.980898
 1160.0    -11.505415     17.072466      2.130871      4.005897
 1165.0    -11.717943     17.157034      2.128170      4.030881
 1170.0    -11.931594     17.241829      2.125524      4.055873
 1175.0    -12.146534     17.326985      2.122934      4.080898
 1180.0    -12.362930     17.412640      2.120400      4.105980
 1185.0    -12.580933     17.498895      2.117921      4.131139
 1190.0    -12.800590     17.585641      2.115486      4.156375
 1195.0    -13.021908     17.672681      2.113077      4.181680
 1200.0    -13.244892     17.759820      2.110678      4.207044
 1205.0    -13.469549     17.846863      2.108272      4.232458
 1210.0    -13.695885     17.933613      2.105844      4.257913
 1215.0    -13.923905     18.019875      2.103377      4.283402
 1220.0    -14.153617     18.105452      2.100855      4.308913
 1225.0    -14.385025     18.190150      2.098260      4.334440
 1230.0    -14.618137     18.273771      2.095578      4.359973
 1235.0    -14.852958     18.356122      2.092790      4.385503
 1240.0    -15.089494     18.437005      2.089881      4.411020
 1245.0    -15.327720     18.516309      2.086843      4.436518
 1250.0    -15.567496     18.594223      2.083697      4.461992
 1255.0    -15.808656     18.671002      2.080472      4.487437
 1260.0    -16.051037     18.746900      2.077196      4.512851
 1265.0    -16.294473     18.822172      2.073896      4.538228
 1270.0    -16.538800     18.897073      2.070602      4.563566
 1275.0    -16.783853     18.971858      2.067340      4.588861
 1280.0    -17.029467     19.046782      2.064140      4.614108
 1285.0    -17.275477     19.122099      2.061030      4.639304
 1290.0    -17.521719     19.198064      2.058037      4.664445
 1295.0    -17.768027     19.274931      2.055190      4.689528
 1300.0    -18.014237     19.352957      2.052518      4.714548
 1305.0    -18.260185     19.432395      2.050047      4.739502
 1310.0    -18.505763     19.513440      2.047800      4.764388
 1315.0    -18.751115     19.596026      2.045763      4.789215
 1320.0    -18.996448     19.680022      2.043919      4.813996
 1325.0    -19.241972     19.765293      2.042246      4.838743
 1330.0    -19.487894     19.851707      2.040724      4.863467
 1335.0    -19.734423     19.939131      2.039335      4.888180
 1340.0    -19.981767     20.027431      2.038057      4.912894
 1345.0    -20.230135     20.116475      2.036871      4.937621
 1350.0    -20.479735     20.206129      2.035756      4.962374
 1355.0    -20.730775     20.296260      2.034694      4.987164
 1360.0    -20.983465     20.386736      2.033664      5.012003
 1365.0    -21.238012     20.477423      2.032646      5.036902
 1370.0    -21.494624     20.568187      2.031620      5.061875
 1375.0    -21.753511     20.658897      2.030566      5.086933
 1380.0    -22.014873     20.749421      2.029464      5.112086
 1385.0    -22.278718     20.839699      2.028310      5.137335
 1390.0    -22.544854     20.929744      2.027108      5.162664
 1395.0    -22.813076     21.019572      2.025867      5.188057
 1400.0    -23.083183     21.109199      2.024596      5.213499
 1405.0    -23.354970     21.198641      2.023300      5.238974
 1410.0    -23.628235     21.287915      2.021990      5.264467
 1415.0    -23.902775     21.377037      2.020671      5.289962
 1420.0    -24.178385     21.466024      2.019351      5.315443
 1425.0    -24.454864     21.554891      2.018039      5.340895
 1430.0    -24.732007     21.643654      2.016743      5.366302
 1435.0    -25.009613     21.732330      2.015469      5.391649
 1440.0    -25.287477     21.820936      2.014226      5.416920
 1445.0    -25.565396     21.909487      2.013021      5.442099
 1450.0    -25.843168     21.998000      2.011863      5.467171
 1455.0    -26.120588     22.086491      2.010758      5.492121
 1460.0    -26.397456     22.174976      2.009715      5.516932
 1465.0    -26.673688     22.263478      2.008737      5.541600
 1470.0    -26.949411     22.352030      2.007824      5.566134
 1475.0    -27.224775     22.440667      2.006972      5.590547
 1480.0    -27.499930     22.529422      2.006180      5.614853
 1485.0    -27.775026     22.618331      2.005445      5.639064
 1490.0    -28.050213     22.707427      2.004764      5.663192
 1495.0    -28.325640     22.796746      2.004136      5.687252
 1500.0    -28.601458     22.886322      2.003557      5.711254
 1505.0    -28.877815     22.976188      2.003026      5.735213
 1510.0    -29.154863     23.066381      2.002540      5.759140
 1515.0    -29.432750     23.156933      2.002097      5.783049
 1520.0    -29.711627     23.247880      2.001694      5.806952
 1525.0    -29.991643     23.339255      2.001329      5.830863
 1530.0    -30.272948     23.431094      2.001000      5.854793
 1535.0    -30.555692     23.523431      2.000704      5.878756
 1540.0    -30.840025     23.616301      2.000439      5.902764
 1545.0    -31.126097     23.709736      2.000202      5.926830
 1550.0    -31.414057     23.803773      1.999992      5.950967
 1555.0    -31.704017     23.898434      1.999806      5.975184
 1560.0    -31.995959     23.993698      1.999643      5.999480
 1565.0    -32.289832     24.089534      1.999502      6.023848
 1570.0    -32.585586     24.185914      1.999383      6.048285
 1575.0    -32.883173     24.282807      1.999285      6.072785
 1580.0    -33.182543     24.380182      1.999208      6.097344
 1585.0    -33.483646     24.478011      1.999151      6.121956
 1590.0    -33.786433     24.576263      1.999113      6.146617
 1595.0    -34.090855     24.674908      1.999093      6.171322
 1600.0    -34.396861     24.773916      1.999091      6.196067
 1605.0    -34.704403     24.873257      1.999107      6.220845
 1610.0    -35.013431     24.972901      1.999139      6.245653
 1615.0    -35.323895     25.072819      1.999186      6.270485
 1620.0    -35.635747     25.172979      1.999249      6.295337
 1625.0    -35.948935     25.273353      1.999327      6.320204
 1630.0    -36.263412     25.373910      1.999418      6.345081
 1635.0    -36.579128     25.474619      1.999522      6.369962
 1640.0    -36.896032     25.575452      1.999639      6.394844
 1645.0    -37.214077     25.676379      1.999768      6.419721
 1650.0    -37.533211     25.777368      1.999908      6.444589
 1655.0    -37.853386     25.878392      2.000058      6.469442
 1660.0    -38.174554     25.979472      2.000222      6.494278
 1665.0    -38.496671     26.080699      2.000404      6.519095
 1670.0    -38.819693     26.182169      2.000610      6.543892
 1675.0    -39.143574     26.283980      2.000848      6.568668
 1680.0    -39.468270     26.386226      2.001123      6.593423
 1685.0    -39.793737     26.489005      2.001441      6.618155
 1690.0    -40.119931     26.592412      2.001809      6.642863
 1695.0    -40.446807     26.696544      2.002233      6.667547
 1700.0    -40.774320     26.801496      2.002719      6.692206
 1705.0    -41.102427     26.907366      2.003273      6.716837
 1710.0    -41.431082     27.014249      2.003901      6.741442
 1715.0    -41.760242     27.122241      2.004610      6.766018
 1720.0    -42.089862     27.231439      2.005406      6.790564
 1725.0    -42.419897     27.341939      2.006294      6.815080
 1730.0    -42.750303     27.453836      2.007282      6.839565
 1735.0    -43.081036     27.567229      2.008375      6.864017
 1740.0    -43.412051     27.682211      2.009580      6.888436
 1745.0    -43.743303     27.798881      2.010902      6.912821
 1750.0    -44.074749     27.917333      2.012348      6.937171
 1755.0    -44.406344     28.037664      2.013925      6.961484
 1760.0    -44.738043     28.159971      2.015637      6.985761
 1765.0    -45.069802     28.284350      2.017492      7.009999
 1770.0    -45.401577     28.410896      2.019496      7.034198
 1775.0    -45.733326     28.539691      2.021654      7.058357
 1780.0    -46.065043     28.670688      2.023962      7.082475
 1785.0    -46.396733     28.803778      2.026413      7.106551
 1790.0    -46.728406     28.938849      2.029000      7.130584
 1795.0    -47.060069     29.075791      2.031714      7.154573
 1800.0    -47.391730     29.214493      2.034548      7.178516
 1805.0    -47.723397     29.354845      2.037494      7.202413
 1810.0    -48.055078     29.496735      2.040546      7.226264
 1815.0    -48.386781     29.640054      2.043694      7.250066
 1820.0    -48.718514     29.784690      2.046932      7.273819
 1825.0    -49.050284     29.930532      2.050252      7.297521
 1830.0    -49.382100     30.077470      2.053647      7.321172
 1835.0    -49.713970     30.225394      2.057108      7.344771
 1840.0    -50.045900     30.374192      2.060628      7.368317
 1845.0    -50.377900     30.523755      2.064199      7.391809
 1850.0    -50.709978     30.673970      2.067814      7.415245
 1855.0    -51.042140     30.824728      2.071466      7.438624
 1860.0    -51.374395     30.975917      2.075146      7.461947
 1865.0    -51.706751     31.127428      2.078847      7.485211
 1870.0    -52.039217     31.279149      2.082561      7.508416
 1875.0    -52.371798     31.430970      2.086281      7.531560
 1880.0    -52.704505     31.582779      2.089999      7.554642
 1885.0    -53.037344     31.734467      2.093707      7.577663
 1890.0    -53.370324     31.885923      2.097398      7.600620
 1895.0    -53.703451     32.037035      2.101064      7.623512
 1900.0    -54.036736     32.187694      2.104698      7.646339
 1905.0    -54.370184     32.337788      2.108292      7.669099
 1910.0    -54.703804     32.487210      2.111838      7.691792
 1915.0    -55.037595     32.635927      2.115334      7.714417
 1920.0    -55.371545     32.783972      2.118783      7.736975
 1925.0    -55.705645     32.931384      2.122186      7.759465
 1930.0    -56.039885     33.078200      2.125547      7.781890
 1935.0    -56.374254     33.224458      2.128867      7.804249
 1940.0    -56.708742     33.370196      2.132150      7.826543
 1945.0    -57.043338     33.515451      2.135397      7.848772
 1950.0    -57.378032     33.660261      2.138611      7.870937
 1955.0    -57.712815     33.804664      2.141795      7.893038
 1960.0    -58.047674     33.948697      2.144951      7.915076
 1965.0    -58.382601     34.092398      2.148082      7.937051
 1970.0    -58.717584     34.235805      2.151189      7.958964
 1975.0    -59.052613     34.378955      2.154276      7.980816
 1980.0    -59.387679     34.521886      2.157344      8.002606
 1985.0    -59.722770     34.664636      2.160397      8.024336
 1990.0    -60.057877     34.807242      2.163437      8.046005
 1995.0    -60.392989     34.949743      2.166466      8.067615
 2000.0    -60.728095     35.092175      2.169487      8.089166
 2005.0    -61.063185     35.234577      2.172501      8.110658
 2010.0    -61.398250     35.376985      2.175513      8.132092
 2015.0    -61.733278     35.519439      2.178523      8.153468
 2020.0    -62.068259     35.661975      2.181535      8.174788
 2025.0    -62.403183     35.804631      2.184551      8.196050
 2030.0    -62.738040     35.947445      2.187574      8.217257
 2035.0    -63.072819     36.090455      2.190605      8.238408
 2040.0    -63.407510     36.233697      2.193648      8.259504
 2045.0    -63.742102     36.377211      2.196704      8.280546
 2050.0    -64.076586     36.521033      2.199777      8.301534
 2055.0    -64.410950     36.665201      2.202868      8.322468
 2060.0    -64.745185     36.809753      2.205981      8.343349
 2065.0    -65.079280     36.954727      2.209117      8.364177
 2070.0    -65.413226     37.100155      2.212279      8.384954
 2075.0    -65.747030     37.246030      2.215467      8.405679
 2080.0    -66.080706     37.392318      2.218678      8.426354
 2085.0    -66.414269     37.538987      2.221910      8.446978
 2090.0    -66.747733     37.686004      2.225162      8.467552
 2095.0    -67.081113     37.833336      2.228431      8.488078
 2100.0    -67.414425     37.980951      2.231716      8.508555
 2105.0    -67.747681     38.128816      2.235014      8.528985
 2110.0    -68.080899     38.276898      2.238323      8.549367
 2115.0    -68.414091     38.425165      2.241642      8.569703
 2120.0    -68.747272     38.573584      2.244969      8.589993
 2125.0    -69.080458     38.722122      2.248301      8.610238
 2130.0    -69.413663     38.870746      2.251637      8.630438
 2135.0    -69.746902     39.019424      2.254974      8.650594
 2140.0    -70.080189     39.168123      2.258311      8.670706
 2145.0    -70.413539     39.316811      2.261645      8.690776
 2150.0    -70.746966     39.465454      2.264975      8.710803
 2155.0    -71.080486     39.614020      2.268299      8.730789
 2160.0    -71.414114     39.762476      2.271614      8.750734
 2165.0    -71.747863     39.910789      2.274920      8.770638
 2170.0    -72.081748     40.058928      2.278212      8.790502
 2175.0    -72.415785     40.206858      2.281491      8.810328
 2180.0    -72.749987     40.354548      2.284753      8.830114
 2185.0    -73.084370     40.501964      2.287997      8.849863
 2190.0    -73.418948     40.649075      2.291221      8.869574
 2195.0    -73.753736     40.795846      2.294422      8.889249
 2200.0    -74.088748     40.942246      2.297600      8.908887
 2205.0    -74.424000     41.088242      2.300751      8.928490
 2210.0    -74.759506     41.233802      2.303874      8.948058
 2215.0    -75.095280     41.378891      2.306967      8.967591
 2220.0    -75.431338     41.523478      2.310027      8.987091
 2225.0    -75.767693     41.667530      2.313054      9.006558
 2230.0    -76.104362     41.811015      2.316045      9.025992
 2235.0    -76.441357     41.953899      2.318997      9.045395
 2240.0    -76.778695     42.096150      2.321909      9.064766
 2245.0    -77.116389     42.237735      2.324780      9.084106
 2250.0    -77.454455     42.378621      2.327606      9.103417
 2255.0    -77.792907     42.518777      2.330386      9.122698
 2260.0    -78.131759     42.658176      2.333119      9.141950
 2265.0    -78.471023     42.796818      2.335805      9.161174
 2270.0    -78.810711     42.934704      2.338443      9.180370
 2275.0    -79.150834     43.071834      2.341034      9.199540
 2280.0    -79.491404     43.208211      2.343579      9.218684
 2285.0    -79.832433     43.343836      2.346078      9.237803
 2290.0    -80.173932     43.478711      2.348530      9.256897
 2295.0    -80.515914     43.612836      2.350936      9.275967
 2300.0    -80.858389     43.746214      2.353297      9.295013
 2305.0    -81.201370     43.878845      2.355612      9.314038
 2310.0    -81.544867     44.010731      2.357882      9.333040
 2315.0    -81.888894     44.141874      2.360108      9.352021
 2320.0    -82.233461     44.272274      2.362288      9.370982
 2325.0    -82.578581     44.401934      2.364425      9.389923
 2330.0    -82.924264     44.530855      2.366517      9.408845
 2335.0    -83.270523     44.659038      2.368566      9.427749
 2340.0    -83.617369     44.786485      2.370570      9.446635
 2345.0    -83.964815     44.913197      2.372532      9.465504
 2350.0    -84.312870     45.039175      2.374450      9.484357
 2355.0    -84.661548     45.164421      2.376326      9.503194
 2360.0    -85.010860     45.288937      2.378159      9.522017
 2365.0    -85.360818     45.412723      2.379950      9.540825
 2370.0    -85.711433     45.535781      2.381699      9.559620
 2375.0    -86.062717     45.658113      2.383406      9.578402
 2380.0    -86.414681     45.779721      2.385071      9.597173
 2385.0    -86.767338     45.900604      2.386695      9.615931
 2390.0    -87.120699     46.020766      2.388279      9.634679
 2395.0    -87.474776     46.140207      2.389821      9.653418
 2400.0    -87.829581     46.258929      2.391323      9.672147
 2405.0    -88.185124     46.376932      2.392785      9.690867
 2410.0    -88.541418     46.494220      2.394206      9.709579
 2415.0    -88.898474     46.610793      2.395588      9.728285
 2420.0    -89.256305     46.726652      2.396930      9.746984
 2425.0    -89.614922     46.841798      2.398234      9.765677
 2430.0    -89.974336     46.956235      2.399498      9.784365
 2435.0    -90.334559     47.069962      2.400723      9.803048
 2440.0    -90.695603     47.182981      2.401910      9.821729
 2445.0    -91.057479     47.295294      2.403059      9.840406
 2450.0    -91.420200     47.406902      2.404170      9.859080
 2455.0    -91.783777     47.517806      2.405243      9.877754
 2460.0    -92.148221     47.628008      2.406279      9.896426
 2465.0    -92.513545     47.737510      2.407277      9.915098
 2470.0    -92.879759     47.846312      2.408239      9.933771
 2475.0    -93.246876     47.954417      2.409164      9.952445
 2480.0    -93.614908     48.061825      2.410052      9.971121
 2485.0    -93.983862     48.168542      2.410905      9.989799
 2490.0    -94.353733     48.274585      2.411722     10.008480
 2495.0    -94.724514     48.379974      2.412505     10.027163
 2500.0    -95.096199     48.484729      2.413255     10.045848
 2505.0    -95.468779     48.588871      2.413973     10.064536
 2510.0    -95.842247     48.692419      2.414659     10.083225
 2515.0    -96.216597     48.795393      2.415315     10.101917
 2520.0    -96.591821     48.897814      2.415942     10.120610
 2525.0    -96.967911     48.999701      2.416540     10.139305
 2530.0    -97.344860     49.101074      2.417111     10.158002
 2535.0    -97.722662     49.201954      2.417655     10.176700
 2540.0    -98.101308     49.302360      2.418174     10.195399
 2545.0    -98.480791     49.402313      2.418668     10.214100
 2550.0    -98.861105     49.501832      2.419138     10.232802
 2555.0    -99.242241     49.600938      2.419586     10.251505
 2560.0    -99.624193     49.699650      2.420013     10.270209
 2565.0   -100.006953     49.797989      2.420418     10.288914
 2570.0   -100.390514     49.895975      2.420804     10.307620
 2575.0   -100.774869     49.993627      2.421171     10.326326
 2580.0   -101.160010     50.090966      2.421520     10.345032
 2585.0   -101.545931     50.188011      2.421852     10.363739
 2590.0   -101.932623     50.284783      2.422169     10.382447
 2595.0   -102.320080     50.381302      2.422470     10.401154
 2600.0   -102.708294     50.477588      2.422757     10.419862
 2605.0   -103.097258     50.573660      2.423032     10.438570
 2610.0   -103.486964     50.669540      2.423294     10.457277
 2615.0   -103.877406     50.765246      2.423546     10.475985
 2620.0   -104.268576     50.860799      2.423787     10.494692
 2625.0   -104.660467     50.956219      2.424019     10.513398
 2630.0   -105.053072     51.051526      2.424242     10.532104
 2635.0   -105.446382     51.146740      2.424459     10.550809
 2640.0   -105.840392     51.241881      2.424669     10.569514
 2645.0   -106.235093     51.336969      2.424874     10.588217
 2650.0   -106.630479     51.432024      2.425075     10.606920
 2655.0   -107.026542     51.527066      2.425272     10.625622
 2660.0   -107.423275     51.622115      2.425467     10.644322
 2665.0   -107.820670     51.717191      2.425660     10.663021
 2670.0   -108.218720     51.812314      2.425853     10.681718
 2675.0   -108.617418     51.907505      2.426046     10.700414
 2680.0   -109.016757     52.002783      2.426241     10.719109
 2685.0   -109.416730     52.098168      2.426438     10.737801
 2690.0   -109.817328     52.193680      2.426638     10.756492
 2695.0   -110.218545     52.289339      2.426843     10.775181
 2700.0   -110.620374     52.385166      2.427053     10.793868
 2705.0   -111.022807     52.481180      2.427269     10.812552
 2710.0   -111.425837     52.577402      2.427493     10.831235
 2715.0   -111.829457     52.673851      2.427724     10.849914
 2720.0   -112.233658     52.770547      2.427965     10.868592
 2725.0   -112.638435     52.867511      2.428216     10.887266
 2730.0   -113.043780     52.964762      2.428478     10.905938
 2735.0   -113.449686     53.062321      2.428752     10.924608
 2740.0   -113.856144     53.160208      2.429038     10.943274
 2745.0   -114.263149     53.258441      2.429339     10.961937
 2750.0   -114.670692     53.357043      2.429655     10.980597
 2755.0   -115.078766     53.456032      2.429986     10.999254
 2760.0   -115.487368     53.555423      2.430334     11.017907
 2765.0   -115.896508     53.655205      2.430699     11.036558
 2770.0   -116.306201     53.755360      2.431078     11.055206
 2775.0   -116.716463     53.855869      2.431472     11.073852
 2780.0   -117.127309     53.956715      2.431880     11.092496
 2785.0   -117.538753     54.057879      2.432300     11.111138
 2790.0   -117.950811     54.159342      2.432733     11.129780
 2795.0   -118.363498     54.261087      2.433177     11.148422
 2800.0   -118.776828     54.363096      2.433632     11.167064
 2805.0   -119.190818     54.465350      2.434096     11.185705
 2810.0   -119.605482     54.567831      2.434569     11.204348
 2815.0   -120.020835     54.670520      2.435050     11.222992
 2820.0   -120.436892     54.773401      2.435539     11.241638
 2825.0   -120.853669     54.876453      2.436034     11.260286
 2830.0   -121.271180     54.979660      2.436535     11.278936
 2835.0   -121.689440     55.083003      2.437040     11.297590
 2840.0   -122.108466     55.186463      2.437550     11.316246
 2845.0   -122.528271     55.290023      2.438064     11.334907
 2850.0   -122.948871     55.393664      2.438579     11.353572
 2855.0   -123.370281     55.497368      2.439097     11.372241
 2860.0   -123.792517     55.601117      2.439615     11.390916
 2865.0   -124.215592     55.704892      2.440134     11.409596
 2870.0   -124.639522     55.808676      2.440652     11.428281
 2875.0   -125.064323     55.912450      2.441168     11.446974
 2880.0   -125.490010     56.016196      2.441682     11.465673
 2885.0   -125.916596     56.119896      2.442193     11.484379
 2890.0   -126.344099     56.223531      2.442701     11.503093
 2895.0   -126.772532     56.327084      2.443203     11.521814
 2900.0   -127.201911     56.430536      2.443701     11.540545
 2905.0   -127.632251     56.533868      2.444192     11.559284
 2910.0   -128.063567     56.637064      2.444676     11.578032
 2915.0   -128.495874     56.740103      2.445152     11.596791
 2920.0   -128.929187     56.842969      2.445619     11.615559
 2925.0   -129.363522     56.945643      2.446077     11.634338
 2930.0   -129.798893     57.048107      2.446525     11.653128
 2935.0   -130.235315     57.150342      2.446962     11.671929
 2940.0   -130.672804     57.252331      2.447387     11.690743
 2945.0   -131.111375     57.354054      2.447799     11.709568
 2950.0   -131.551042     57.455495      2.448198     11.728406
 2955.0   -131.991821     57.556635      2.448583     11.747258
 2960.0   -132.433728     57.657454      2.448952     11.766122
 2965.0   -132.876776     57.757937      2.449306     11.785001
 2970.0   -133.320981     57.858063      2.449644     11.803894
 2975.0   -133.766359     57.957815      2.449963     11.822802
 2980.0   -134.212924     58.057174      2.450265     11.841726
 2985.0   -134.660691     58.156124      2.450548     11.860664
 2990.0   -135.109676     58.254644      2.450810     11.879619
 2995.0   -135.559893     58.352717      2.451053     11.898591
 3000.0   -136.011358     58.450325      2.451274     11.917579
 3050.0   -140.597954     59.396808      2.452130     12.108488
 3100.0   -145.325925     60.276727      2.449969     12.301554
 3150.0   -150.206949     61.076899      2.444223     12.497099
 3200.0   -155.239376     61.803799      2.435226     12.695034
 3250.0   -160.418301     62.468697      2.423529     12.895174
 3300.0   -165.738818     63.082867      2.409685     13.097334
 3350.0   -171.196021     63.657580      2.394246     13.301326
 3400.0   -176.785006     64.204109      2.377764     13.506964
 3450.0   -182.500867     64.733726      2.360792     13.714064
 3500.0   -188.338698     65.257702      2.343881     13.922438
 3550.0   -194.293594     65.787306      2.327584     14.131901
 3600.0   -200.360553     66.331851      2.312326     14.342275
 3650.0   -206.534328     66.895653      2.298205     14.553402
 3700.0   -212.809633     67.482241      2.285270     14.765129
 3750.0   -219.181182     68.095146      2.273569     14.977300
 3800.0   -225.643690     68.737897      2.263150     15.189763
 3850.0   -232.191871     69.414024      2.254061     15.402363
 3900.0   -238.820439     70.127057      2.246350     15.614945
 3950.0   -245.524107     70.880526      2.240066     15.827356
 4000.0   -252.297591     71.677960      2.235255     16.039442
 4050.0   -259.135605     72.522888      2.231968     16.251048
 4100.0   -266.032862     73.418842      2.230250     16.462020
 4150.0   -272.984130     74.369293      2.230150     16.672207
 4200.0   -279.987144     75.374545      2.231642     16.881536
 4250.0   -287.044108     76.430126      2.234591     17.090065
 4300.0   -294.157595     77.531170      2.238854     17.297856
 4350.0   -301.330180     78.672810      2.244287     17.504975
 4400.0   -308.564436     79.850180      2.250747     17.711488
 4450.0   -315.862938     81.058412      2.258089     17.917458
 4500.0   -323.228260     82.292641      2.266172     18.122951
 4550.0   -330.662974     83.547999      2.274850     18.328031
 4600.0   -338.169656     84.819620      2.283981     18.532764
 4650.0   -345.750880     86.102637      2.293422     18.737214
 4700.0   -353.409218     87.392185      2.303028     18.941446
 4750.0   -361.147246     88.683395      2.312655     19.145525
 4800.0   -368.967537     89.971402      2.322162     19.349516
 4850.0   -376.872665     91.251339      2.331403     19.553484
 4900.0   -384.865203     92.518339      2.340236     19.757493
 4950.0   -392.947727     93.767536      2.348517     19.961609
 5000.0   -401.122545     94.994677      2.356119     20.165890
 5050.0   -409.390079     96.199881      2.363036     20.370347
 5100.0   -417.749938     97.385160      2.369315     20.574974
 5150.0   -426.201724     98.552534      2.375003     20.779762
 5200.0   -434.745040     99.704022      2.380145     20.984703
 5250.0   -443.379489    100.841645      2.384788     21.189788
 5300.0   -452.104675    101.967422      2.388979     21.395011
 5350.0   -460.920201    103.083373      2.392764     21.600363
 5400.0   -469.825671    104.191518      2.396190     21.805835
 5450.0   -478.820687    105.293876      2.399303     22.011421
 5500.0   -487.904853    106.392468      2.402149     22.217111
 5550.0   -497.077771    107.489312      2.404776     22.422898
 5600.0   -506.339046    108.586430      2.407229     22.628775
 5650.0   -515.688280    109.685840      2.409555     22.834732
 5700.0   -525.125077    110.789563      2.411801     23.040761
 5750.0   -534.649040    111.899618      2.414013     23.246856
 5800.0   -544.259772    113.018025      2.416238     23.453007
 5850.0   -553.956877    114.146804      2.418522     23.659207
 5900.0   -563.739957    115.287974      2.420911     23.865448
 5950.0   -573.608615    116.443556      2.423452     24.071722
 6000.0   -583.562456    117.615570      2.426192     24.278020
 6050.0   -593.601083    118.806034      2.429177     24.484336
 6100.0   -603.724097    120.016969      2.432454     24.690659
 6150.0   -613.931104    121.250394      2.436068     24.896984
 6200.0   -624.221706    122.508330      2.440067     25.103301
 6250.0   -634.595552    123.792403      2.444488     25.309604
 6300.0   -645.052472    125.102736      2.449332     25.515891
 6350.0   -655.592336    126.439098      2.454592     25.722160
 6400.0   -666.215016    127.801254      2.460262     25.928410
 6450.0   -676.920380    129.188972      2.466335     26.134641
 6500.0   -687.708301    130.602019      2.472803     26.340850
 6550.0   -698.578650    132.040162      2.479660     26.547038
 6600.0   -709.531296    133.503167      2.486899     26.753202
 6650.0   -720.566112    134.990802      2.494513     26.959342
 6700.0   -731.682967    136.502834      2.502496     27.165456
 6750.0   -742.881732    138.039029      2.510839     27.371544
 6800.0   -754.162278    139.599154      2.519537     27.577604
 6850.0   -765.524477    141.182977      2.528583     27.783635
 6900.0   -776.968198    142.790264      2.537969     27.989636
 6950.0   -788.493313    144.420782      2.547689     28.195606
 7000.0   -800.099692    146.074298      2.557735     28.401543
 7050.0   -811.787206    147.750580      2.568102     28.607447
 7100.0   -823.555725    149.449393      2.578782     28.813316
 7150.0   -835.405122    151.170505      2.589768     29.019150
 7200.0   -847.335266    152.913683      2.601053     29.224946
 7250.0   -859.346028    154.678694      2.612631     29.430705
 7300.0   -871.437279    156.465305      2.624494     29.636424
 7350.0   -883.608890    158.273282      2.636636     29.842103
 7400.0   -895.860732    160.102393      2.649049     30.047741
 7450.0   -908.192674    161.952404      2.661728     30.253336
 7500.0   -920.604589    163.823083      2.674664     30.458887
 7550.0   -933.096347    165.714196      2.687852     30.664393
 7600.0   -945.667819    167.625510      2.701283     30.869853
 7650.0   -958.318875    169.556793      2.714952     31.075266
 7700.0   -971.049386    171.507811      2.728852     31.280631
 7750.0   -983.859223    173.478331      2.742975     31.485946
 7800.0   -996.748257    175.468120      2.757314     31.691211
 7850.0  -1009.716359    177.476945      2.771864     31.896424
 7900.0  -1022.763399    179.504573      2.786616     32.101584
 7950.0  -1035.889248    181.550771      2.801564     32.306690
 8000.0  -1049.093777    183.615305      2.816702     32.511741
 8050.0  -1062.376857    185.697944      2.832021     32.716736
 8100.0  -1075.738359    187.798453      2.847516     32.921673
 8150.0  -1089.178153    189.916599      2.863179     33.126551
 8200.0  -1102.696109    192.052150      2.879004     33.331370
 8250.0  -1116.292100    194.204873      2.894984     33.536128
 8300.0  -1129.965995    196.374534      2.911111     33.740824
 8350.0  -1143.717666    198.560900      2.927379     33.945457
 8400.0  -1157.546983    200.763738      2.943782     34.150026
 8450.0  -1171.453817    202.982816      2.960311     34.354529
 8500.0  -1185.438039    205.217900      2.976960     34.558965
 8550.0  -1199.499519    207.468756      2.993723     34.763334
 8600.0  -1213.638128    209.735153      3.010593     34.967634
 8650.0  -1227.853738    212.016857      3.027561     35.171864
 8700.0  -1242.146219    214.313634      3.044623     35.376023
 8750.0  -1256.515441    216.625252      3.061770     35.580110
 8800.0  -1270.961276    218.951478      3.078997     35.784123
 8850.0  -1285.483594    221.292079      3.096295     35.988062
 8900.0  -1300.082266    223.646821      3.113658     36.191925
 8950.0  -1314.757163    226.015472      3.131080     36.395711
 9000.0  -1329.508155    228.397798      3.148553     36.599419
 9050.0  -1344.335114    230.793566      3.166070     36.803049
 9100.0  -1359.237910    233.202544      3.183625     37.006597
 9150.0  -1374.216414    235.624498      3.201211     37.210065
 9200.0  -1389.270497    238.059195      3.218820     37.413450
 9250.0  -1404.400029    240.506403      3.236447     37.616751
 9300.0  -1419.604881    242.965887      3.254083     37.819968
 9350.0  -1434.884925    245.437415      3.271723     38.023098
 9400.0  -1450.240030    247.920755      3.289358     38.226142
 9450.0  -1465.670068    250.415672      3.306983     38.429097
 9500.0  -1481.174910    252.921933      3.324591     38.631963
 9550.0  -1496.754425    255.439307      3.342174     38.834739
 9600.0  -1512.408486    257.967559      3.359726     39.037422
 9650.0  -1528.136963    260.506457      3.377240     39.240013
 9700.0  -1543.939726    263.055767      3.394708     39.442510
 9750.0  -1559.816646    265.615257      3.412125     39.644912
 9800.0  -1575.767594    268.184693      3.429483     39.847218
 9850.0  -1591.792442    270.763842      3.446775     40.049426
 9900.0  -1607.891059    273.352471      3.463994     40.251536
 9950.0  -1624.063316    275.950348      3.481134     40.453547
10000.0  -1640.309085    278.557239      3.498188     40.655456
10050.0  -1656.628236    281.172911      3.515148     40.857264
10100.0  -1673.020640    283.797130      3.532008     41.058968
10150.0  -1689.486167    286.429665      3.548761     41.260569
10200.0  -1706.024689    289.070282      3.565400     41.462064
10250.0  -1722.636075    291.718747      3.581918     41.663452
10300.0  -1739.320198    294.374828      3.598309     41.864733
10350.0  -1756.076927    297.038291      3.614564     42.065906
10400.0  -1772.906134    299.708905      3.630679     42.266968
10450.0  -1789.807690    302.386434      3.646645     42.467919
10500.0  -1806.781464    305.070647      3.662455     42.668758
10550.0  -1823.827328    307.761311      3.678104     42.869484
10600.0  -1840.945153    310.458191      3.693583     43.070096
10650.0  -1858.134809    313.161056      3.708887     43.270591
10700.0  -1875.396168    315.869672      3.724007     43.470970
10750.0  -1892.729099    318.583807      3.738938     43.671232
10800.0  -1910.133474    321.303226      3.753673     43.871374
10850.0  -1927.609164    324.027697      3.768203     44.071396
10900.0  -1945.156039    326.756987      3.782524     44.271297
10950.0  -1962.773971    329.490863      3.796627     44.471075
11000.0  -1980.462829    332.229092      3.810506     44.670729
11050.0  -1998.222484    334.971440      3.824154     44.870259
11100.0  -2016.052809    337.717675      3.837564     45.069664
11150.0  -2033.953672    340.467563      3.850729     45.268941
11200.0  -2051.924946    343.220872      3.863643     45.468090
11250.0  -2069.966500    345.977369      3.876298     45.667110
11300.0  -2088.078206    348.736819      3.888687     45.865999
11350.0  -2106.259935    351.498991      3.900804     46.064757
11400.0  -2124.511556    354.263652      3.912642     46.263382
11450.0  -2142.832942    357.030567      3.924194     46.461873
11500.0  -2161.223962    359.799505      3.935452     46.660229
11550.0  -2179.684488    362.570231      3.946411     46.858449
11600.0  -2198.214390    365.342514      3.957063     47.056532
11650.0  -2216.813539    368.116119      3.967401     47.254477
11700.0  -2235.481806    370.890814      3.977419     47.452282
11750.0  -2254.219061    373.666366      3.987109     47.649946
11800.0  -2273.025176    376.442542      3.996465     47.847468
11850.0  -2291.900021    379.219108      4.005479     48.044848
11900.0  -2310.843468    381.995832      4.014146     48.242083
11950.0  -2329.855386    384.772480      4.022457     48.439173
12000.0  -2348.935646    387.548819      4.030407     48.636117
12050.0  -2368.084120    390.324617      4.037987     48.832913
12100.0  -2387.300678    393.099641      4.045192     49.029561
12150.0  -2406.585191    395.873656      4.052015     49.226059
12200.0  -2425.937530    398.646431      4.058448     49.422406
12250.0  -2445.357565    401.417731      4.064484     49.618601
12300.0  -2464.845167    404.187325      4.070118     49.814642
12350.0  -2484.400207    406.954979      4.075341     50.010529
12400.0  -2504.022556    409.720459      4.080147     50.206261
