#Lambda        Dielectric Constant          Refractive Index
# [nm]        [Real]        [Imag]        [Real]        [Imag]
   10.0      0.943794      0.054815      0.971900      0.028200
   15.0      0.857623      0.093730      0.927458      0.050531
   20.0      0.726400      0.225923      0.862300      0.131000
   25.0      0.713874      0.492840      0.889294      0.277690
   30.0      0.783894      0.542563      0.932158      0.291301
   35.0      0.908157      0.531064      0.990005      0.268213
   40.0      0.888000      0.446200      0.970000      0.230000
   45.0      0.732669      0.413795      0.887166      0.233240
   50.0      0.626400      0.415000      0.830000      0.250000
   55.0      0.398389      0.376083      0.687889      0.273358
   60.0      0.117621      0.478615      0.552467      0.433236
   65.0     -0.136522      0.676890      0.526254      0.643043
   70.0     -0.358737      0.918404      0.560064      0.819987
   75.0     -0.552840      1.238592      0.633902      0.977106
   80.0     -0.647099      1.603007      0.735330      1.089929
   85.0     -0.597086      1.960832      0.852257      1.150389
   90.0     -0.516879      2.113762      0.910815      1.160375
   95.0     -0.614631      2.253613      0.927710      1.214608
  100.0     -0.678000      2.508800      0.980000      1.280000
  105.0     -0.641864      2.767103      1.048499      1.319558
  110.0     -0.599250      2.971850      1.102807      1.347375
  115.0     -0.525502      3.132032      1.151161      1.360392
  120.0     -0.476830      3.249109      1.184731      1.371272
  125.0     -0.423712      3.299524      1.204765      1.369372
  130.0     -0.445152      3.341519      1.209521      1.381342
  135.0     -0.444716      3.339656      1.209226      1.380920
  140.0     -0.592484      3.308447      1.176517      1.405942
  145.0     -0.847419      3.321227      1.135795      1.461987
  150.0     -1.087283      3.445690      1.123812      1.533067
  155.0     -1.360000      3.574200      1.110000      1.610000
  160.0     -1.645415      3.775497      1.111979      1.697612
  165.0     -1.903897      4.000888      1.124049      1.779751
  170.0     -2.183517      4.252571      1.139464      1.865968
  175.0     -2.513455      4.585636      1.165348      1.967568
  180.0     -2.812607      4.985258      1.206447      2.066015
  185.0     -3.096781      5.441081      1.257805      2.162991
  190.0     -3.374886      5.951433      1.316561      2.260185
  195.0     -3.611391      6.548697      1.390548      2.354762
  200.0     -3.812100      7.252000      1.480000      2.450000
  205.0     -3.908254      8.069883      1.590252      2.537092
  210.0     -3.787006      8.940235      1.720900      2.597923
  215.0     -3.486586      9.848355      1.865487      2.639390
  220.0     -3.050785     10.762781      2.016841      2.668003
  225.0     -2.348641     11.541992      2.171455      2.657843
  230.0     -1.392660     12.092417      2.321602      2.604353
  235.0     -0.310554     12.345415      2.453419      2.516361
  240.0      0.699889     12.204503      2.542235      2.400179
  245.0      1.483192     11.709231      2.577724      2.271065
  250.0      1.975146     11.124888      2.575987      2.159258
  255.0      2.167817     10.645567      2.552285      2.085217
  260.0      2.116538     10.344663      2.517643      2.054651
  265.0      1.921912     10.203901      2.480703      2.057139
  270.0      1.747064     10.077601      2.446908      2.059183
  275.0      1.696932      9.869337      2.419699      2.038903
  280.0      1.687958      9.660836      2.397362      2.014698
  285.0      1.609728      9.559594      2.377478      2.010727
  290.0      1.454373      9.581138      2.360795      2.029557
  295.0      1.285050      9.677301      2.350252      2.058794
  300.0      1.154430      9.804836      2.347970      2.087724
  305.0      1.061472      9.948468      2.352176      2.114553
  310.0      0.990000     10.100800      2.360000      2.140000
  315.0      0.927368     10.256983      2.369275      2.164723
  320.0      0.875057     10.422355      2.380637      2.189136
  325.0      0.838083     10.604796      2.395428      2.213591
  330.0      0.821264     10.810768      2.414813      2.238309
  335.0      0.827672     11.033926      2.438415      2.262324
  340.0      0.859451     11.261149      2.465035      2.284048
  345.0      0.918735     11.479259      2.493468      2.301883
  350.0      1.006031     11.678562      2.522720      2.314786
  355.0      1.117276     11.859126      2.552387      2.323265
  360.0      1.247613     12.022719      2.582169      2.328094
  365.0      1.392187     12.171107      2.611765      2.330050
  370.0      1.546495     12.304984      2.640817      2.329733
  375.0      1.707209     12.421457      2.668773      2.327147
  380.0      1.871247     12.516885      2.695045      2.322178
  385.0      2.035530     12.587625      2.719040      2.314709
  390.0      2.197027     12.630257      2.740193      2.304641
  395.0      2.353898     12.646406      2.758491      2.292301
  400.0      2.505491     12.642754      2.774475      2.278442
  405.0      2.651206     12.626196      2.788709      2.263832
  410.0      2.790444     12.603632      2.801760      2.249243
  415.0      2.922616     12.581821      2.814182      2.235429
  420.0      3.047872     12.559574      2.825913      2.222213
  425.0      3.167484     12.523603      2.835952      2.208008
  430.0      3.282707     12.460165      2.843257      2.191175
  435.0      3.392276     12.368466      2.847614      2.171713
  440.0      3.492404     12.260664      2.849640      2.151256
  445.0      3.579245     12.149202      2.849969      2.131473
  450.0      3.650489     12.038079      2.848669      2.112963
  455.0      3.705628     11.921408      2.845143      2.095075
  460.0      3.744255     11.792753      2.838762      2.077086
  465.0      3.766397     11.650154      2.829323      2.058764
  470.0      3.773161     11.502830      2.817701      2.041103
  475.0      3.765822     11.361718      2.804935      2.025283
  480.0      3.745788     11.236918      2.792011      2.012376
  485.0      3.716347     11.126923      2.779171      2.001923
  490.0      3.682157     11.021756      2.766114      1.992350
  495.0      3.647909     10.911245      2.752526      1.982054
  500.0      3.617385     10.786500      2.738093      1.969663
  505.0      3.588073     10.647522      2.722493      1.955396
  510.0      3.554794     10.498080      2.705400      1.940140
  515.0      3.512360     10.341954      2.686489      1.924787
  520.0      3.455858     10.182605      2.665436      1.910169
  525.0      3.383436     10.019935      2.641940      1.896431
  530.0      3.295145      9.851632      2.615708      1.883295
  535.0      3.191068      9.675350      2.586452      1.870475
  540.0      3.071283      9.488751      2.553880      1.857689
  545.0      2.935834      9.291500      2.517888      1.844938
  550.0      2.784670      9.087991      2.478807      1.832904
  555.0      2.617729      8.883302      2.437028      1.822367
  560.0      2.434947      8.682509      2.392946      1.814104
  565.0      2.236268      8.490672      2.346952      1.808892
  570.0      2.022226      8.311394      2.299465      1.807273
  575.0      1.794417      8.145664      2.250948      1.809368
  580.0      1.554546      7.994202      2.201866      1.815258
  585.0      1.304316      7.857728      2.152686      1.825019
  590.0      1.045433      7.736961      2.103875      1.838730
  595.0      0.779516      7.632245      2.055840      1.856404
  600.0      0.507749      7.542010      2.008689      1.877714
  605.0      0.231177      7.464080      1.962432      1.902227
  610.0     -0.049153      7.396280      1.917081      1.929509
  615.0     -0.332195      7.336432      1.872646      1.959127
  620.0     -0.616904      7.282361      1.829139      1.990646
  625.0     -0.902680      7.232319      1.786572      2.023742
  630.0     -1.190610      7.186179      1.744962      2.058492
  635.0     -1.482177      7.144193      1.704324      2.095070
  640.0     -1.778862      7.106613      1.664677      2.133650
  645.0     -2.082149      7.073692      1.626036      2.174406
  650.0     -2.393520      7.045683      1.588419      2.217512
  655.0     -2.714356      7.022838      1.551849      2.263124
  660.0     -3.043702      7.005384      1.516473      2.311016
  665.0     -3.378266      6.993523      1.482567      2.360577
  670.0     -3.714654      6.987459      1.450413      2.411181
  675.0     -4.049474      6.987393      1.420289      2.462199
  680.0     -4.379332      6.993528      1.392478      2.513006
  685.0     -4.700834      7.006065      1.367259      2.562972
  690.0     -5.010601      7.025204      1.344913      2.611475
  695.0     -5.307054      7.050752      1.325502      2.658167
  700.0     -5.592210      7.081729      1.308667      2.703260
  705.0     -5.868514      7.117066      1.293992      2.747032
  710.0     -6.138411      7.155690      1.281066      2.789761
  715.0     -6.404345      7.196532      1.269475      2.831725
  720.0     -6.668760      7.238520      1.258806      2.873201
  725.0     -6.934102      7.280583      1.248646      2.914467
  730.0     -7.202812      7.321650      1.238582      2.955801
  735.0     -7.476557      7.361018      1.228328      2.997392
  740.0     -7.754943      7.398950      1.217931      3.039196
  745.0     -8.037238      7.435870      1.207497      3.081130
  750.0     -8.322712      7.472200      1.197126      3.123110
  755.0     -8.610634      7.508364      1.186922      3.165054
  760.0     -8.900275      7.544785      1.176988      3.206880
  765.0     -9.190903      7.581884      1.167427      3.248504
  770.0     -9.481788      7.620086      1.158342      3.289843
  775.0     -9.772199      7.659812      1.149836      3.330815
  780.0    -10.061558      7.701363      1.141983      3.371354
  785.0    -10.349859      7.744570      1.134745      3.411458
  790.0    -10.637233      7.789159      1.128060      3.451139
  795.0    -10.923808      7.834850      1.121865      3.490412
  800.0    -11.209714      7.881369      1.116097      3.529289
  805.0    -11.495080      7.928438      1.110692      3.567784
  810.0    -11.780037      7.975781      1.105588      3.605908
  815.0    -12.064713      8.023120      1.100722      3.643677
  820.0    -12.349238      8.070179      1.096031      3.681102
  825.0    -12.633742      8.116682      1.091452      3.718197
  830.0    -12.918356      8.162370      1.086925      3.754976
  835.0    -13.203239      8.207198      1.082432      3.791460
  840.0    -13.488564      8.251249      1.077976      3.827674
  845.0    -13.774504      8.294610      1.073563      3.863646
  850.0    -14.061235      8.337369      1.069199      3.899401
  855.0    -14.348930      8.379611      1.064888      3.934965
  860.0    -14.637764      8.421424      1.060637      3.970365
  865.0    -14.927910      8.462894      1.056451      4.005626
  870.0    -15.219542      8.504108      1.052335      4.040774
  875.0    -15.512836      8.545153      1.048294      4.075836
  880.0    -15.807964      8.586114      1.044333      4.110838
  885.0    -16.105100      8.627080      1.040459      4.145805
  890.0    -16.404382      8.668137      1.036676      4.180760
  895.0    -16.705730      8.709379      1.032993      4.215698
  900.0    -17.008988      8.750901      1.029418      4.250605
  905.0    -17.313997      8.792798      1.025958      4.285469
  910.0    -17.620603      8.835165      1.022622      4.320275
  915.0    -17.928648      8.878099      1.019418      4.355011
  920.0    -18.237976      8.921693      1.016355      4.389663
  925.0    -18.548430      8.966044      1.013441      4.424217
  930.0    -18.859853      9.011246      1.010683      4.458660
  935.0    -19.172090      9.057395      1.008091      4.492979
  940.0    -19.484982      9.104586      1.005672      4.527160
  945.0    -19.798373      9.152915      1.003435      4.561189
  950.0    -20.112108      9.202476      1.001388      4.595054
  955.0    -20.426030      9.253363      0.999539      4.628741
  960.0    -20.740094      9.305567      0.997885      4.662245
  965.0    -21.054470      9.358877      0.996402      4.695580
  970.0    -21.369346      9.413063      0.995066      4.728761
  975.0    -21.684914      9.467894      0.993850      4.761804
  980.0    -22.001365      9.523137      0.992729      4.794723
  985.0    -22.318888      9.578562      0.991676      4.827534
  990.0    -22.637674      9.633938      0.990666      4.860252
  995.0    -22.957915      9.689033      0.989673      4.892892
 1000.0    -23.279801      9.743617      0.988672      4.925469
 1005.0    -23.603522      9.797457      0.987637      4.957999
 1010.0    -23.929269      9.850322      0.986542      4.990496
 1015.0    -24.257232      9.901982      0.985360      5.022977
 1020.0    -24.587603      9.952205      0.984068      5.055455
 1025.0    -24.920571     10.000760      0.982638      5.087947
 1030.0    -25.256328     10.047415      0.981045      5.120468
 1035.0    -25.595060     10.091944      0.979263      5.153032
 1040.0    -25.936807     10.134286      0.977287      5.185643
 1045.0    -26.281417     10.174596      0.975131      5.218293
 1050.0    -26.628726     10.213047      0.972814      5.250970
 1055.0    -26.978569     10.249807      0.970354      5.283665
 1060.0    -27.330782     10.285047      0.967769      5.316366
 1065.0    -27.685200     10.318938      0.965078      5.349063
 1070.0    -28.041659     10.351649      0.962297      5.381746
 1075.0    -28.399993     10.383352      0.959445      5.414404
 1080.0    -28.760040     10.414216      0.956541      5.447026
 1085.0    -29.121634     10.444412      0.953601      5.479603
 1090.0    -29.484611     10.474111      0.950645      5.512123
 1095.0    -29.848806     10.503482      0.947690      5.544577
 1100.0    -30.214055     10.532696      0.944754      5.576953
 1105.0    -30.580194     10.561923      0.941856      5.609241
 1110.0    -30.947057     10.591334      0.939012      5.641431
 1115.0    -31.314481     10.621100      0.936242      5.673512
 1120.0    -31.682300     10.651389      0.933563      5.705474
 1125.0    -32.050352     10.682374      0.930993      5.737306
 1130.0    -32.418486     10.714214      0.928550      5.768999
 1135.0    -32.786798     10.746944      0.926235      5.800560
 1140.0    -33.155570     10.780496      0.924039      5.832010
 1145.0    -33.525088     10.814799      0.921951      5.863370
 1150.0    -33.895639     10.849784      0.919963      5.894661
 1155.0    -34.267509     10.885382      0.918065      5.925904
 1160.0    -34.640985     10.921522      0.916246      5.957119
 1165.0    -35.016353     10.958135      0.914497      5.988329
 1170.0    -35.393900     10.995150      0.912809      6.019554
 1175.0    -35.773913     11.032499      0.911170      6.050814
 1180.0    -36.156677     11.070112      0.909573      6.082131
 1185.0    -36.542480     11.107917      0.908006      6.113526
 1190.0    -36.931608     11.145847      0.906460      6.145020
 1195.0    -37.324348     11.183831      0.904925      6.176633
 1200.0    -37.720985     11.221799      0.903391      6.208387
 1205.0    -38.121807     11.259681      0.901849      6.240303
 1210.0    -38.527100     11.297408      0.900289      6.272401
 1215.0    -38.937151     11.334910      0.898701      6.304703
 1220.0    -39.352246     11.372117      0.897076      6.337229
 1225.0    -39.772672     11.408959      0.895403      6.370001
 1230.0    -40.198716     11.445367      0.893672      6.403040
 1235.0    -40.630663     11.481270      0.891874      6.436366
 1240.0    -41.068800     11.516600      0.890000      6.470000
 1245.0    -41.513037     11.551319      0.888046      6.503936
 1250.0    -41.961773     11.585527      0.886037      6.538052
 1255.0    -42.413031     11.619355      0.884005      6.572201
 1260.0    -42.864832     11.652935      0.881982      6.606233
 1265.0    -43.315200     11.686400      0.880000      6.640000
 1270.0    -43.762609     11.719839      0.878083      6.673387
 1275.0    -44.207346     11.753171      0.876223      6.706415
 1280.0    -44.650149     11.786274      0.874407      6.739138
 1285.0    -45.091757     11.819024      0.872617      6.771611
 1290.0    -45.532910     11.851299      0.870840      6.803887
 1295.0    -45.974346     11.882975      0.869060      6.836021
 1300.0    -46.416804     11.913929      0.867262      6.868067
 1305.0    -46.861024     11.944038      0.865431      6.900080
 1310.0    -47.307744     11.973178      0.863552      6.932113
 1315.0    -47.757704     12.001228      0.861610      6.964222
 1320.0    -48.211640     12.028065      0.859589      6.996461
 1325.0    -48.670029     12.053761      0.857490      7.028864
 1330.0    -49.132760     12.078823      0.855346      7.061428
 1335.0    -49.599646     12.103816      0.853196      7.094140
 1340.0    -50.070497     12.129306      0.851077      7.126990
 1345.0    -50.545124     12.155858      0.849029      7.159966
 1350.0    -51.023339     12.184039      0.847088      7.193059
 1355.0    -51.504952     12.214412      0.845293      7.226256
 1360.0    -51.989776     12.247544      0.843682      7.259547
 1365.0    -52.477620     12.284000      0.842294      7.292921
 1370.0    -52.968297     12.324345      0.841167      7.326366
 1375.0    -53.461617     12.369146      0.840338      7.359872
 1380.0    -53.957394     12.418955      0.839845      7.393428
 1385.0    -54.455486     12.473848      0.839694      7.427023
 1390.0    -54.955815     12.533280      0.839848      7.460649
 1395.0    -55.458306     12.596667      0.840268      7.494296
 1400.0    -55.962886     12.663422      0.840916      7.527957
 1405.0    -56.469480     12.732960      0.841752      7.561621
 1410.0    -56.978012     12.804696      0.842737      7.595281
 1415.0    -57.488409     12.878043      0.843833      7.628927
 1420.0    -58.000597     12.952415      0.845001      7.662550
 1425.0    -58.514500     13.027228      0.846201      7.696142
 1430.0    -59.030044     13.101896      0.847394      7.729694
 1435.0    -59.547155     13.175832      0.848543      7.763196
 1440.0    -60.065758     13.248452      0.849607      7.796641
 1445.0    -60.585778     13.319203      0.850550      7.830018
 1450.0    -61.107141     13.388042      0.851368      7.863325
 1455.0    -61.629771     13.455316      0.852083      7.896559
 1460.0    -62.153591     13.521382      0.852718      7.929720
 1465.0    -62.678525     13.586598      0.853294      7.962807
 1470.0    -63.204499     13.651320      0.853833      7.995819
 1475.0    -63.731435     13.715906      0.854360      8.028754
 1480.0    -64.259259     13.780713      0.854894      8.061612
 1485.0    -64.787893     13.846098      0.855460      8.094391
 1490.0    -65.317263     13.912419      0.856079      8.127091
 1495.0    -65.847292     13.980033      0.856773      8.159710
 1500.0    -66.377904     14.049297      0.857565      8.192248
 1505.0    -66.909024     14.120568      0.858478      8.224704
 1510.0    -67.440576     14.194204      0.859533      8.257075
 1515.0    -67.972493     14.270540      0.860752      8.289362
 1520.0    -68.504863     14.349593      0.862134      8.321571
 1525.0    -69.037888     14.431134      0.863666      8.353711
 1530.0    -69.571775     14.514929      0.865330      8.385792
 1535.0    -70.106731     14.600742      0.867112      8.417826
 1540.0    -70.642962     14.688337      0.868996      8.449822
 1545.0    -71.180674     14.777480      0.870967      8.481792
 1550.0    -71.720074     14.867935      0.873008      8.513744
 1555.0    -72.261368     14.959468      0.875103      8.545690
 1560.0    -72.804762     15.051842      0.877239      8.577640
 1565.0    -73.350464     15.144824      0.879397      8.609604
 1570.0    -73.898679     15.238176      0.881564      8.641592
 1575.0    -74.449613     15.331666      0.883724      8.673616
 1580.0    -75.003474     15.425056      0.885860      8.705685
 1585.0    -75.560468     15.518113      0.887957      8.737809
 1590.0    -76.120800     15.610600      0.890000      8.770000
 1595.0    -76.684608     15.702340      0.891977      8.802263
 1600.0    -77.251752     15.793384      0.893890      8.834592
 1605.0    -77.822020     15.883839      0.895748      8.866976
 1610.0    -78.395202     15.973813      0.897558      8.899403
 1615.0    -78.971088     16.063414      0.899327      8.931863
 1620.0    -79.549467     16.152750      0.901062      8.964345
 1625.0    -80.130129     16.241929      0.902770      8.996839
 1630.0    -80.712863     16.331059      0.904460      9.029333
 1635.0    -81.297459     16.420247      0.906137      9.061816
 1640.0    -81.883706     16.509601      0.907810      9.094278
 1645.0    -82.471394     16.599230      0.909485      9.126707
 1650.0    -83.060313     16.689241      0.911171      9.159094
 1655.0    -83.650252     16.779741      0.912873      9.191427
 1660.0    -84.241001     16.870840      0.914600      9.223694
 1665.0    -84.832349     16.962644      0.916359      9.255886
 1670.0    -85.424085     17.055261      0.918156      9.287992
 1675.0    -86.016000     17.148800      0.920000      9.320000
 1680.0    -86.607933     17.243336      0.921895      9.351903
 1685.0    -87.199927     17.338819      0.923839      9.383702
 1690.0    -87.792075     17.435166      0.925827      9.415405
 1695.0    -88.384469     17.532293      0.927854      9.447015
 1700.0    -88.977203     17.630119      0.929915      9.478539
 1705.0    -89.570369     17.728561      0.932004      9.509982
 1710.0    -90.164060     17.827535      0.934119      9.541349
 1715.0    -90.758370     17.926959      0.936252      9.572645
 1720.0    -91.353390     18.026751      0.938400      9.603877
 1725.0    -91.949215     18.126828      0.940557      9.635050
 1730.0    -92.545937     18.227107      0.942719      9.666168
 1735.0    -93.143648     18.327504      0.944881      9.697238
 1740.0    -93.742442     18.427939      0.947038      9.728265
 1745.0    -94.342412     18.528327      0.949185      9.759254
 1750.0    -94.943650     18.628586      0.951317      9.790211
 1755.0    -95.546250     18.728634      0.953430      9.821141
 1760.0    -96.150304     18.828387      0.955518      9.852050
 1765.0    -96.755905     18.927763      0.957576      9.882942
 1770.0    -97.363147     19.026679      0.959600      9.913824
 1775.0    -97.972130     19.125068      0.961585      9.944702
 1780.0    -98.583019     19.222972      0.963533      9.975581
 1785.0    -99.196008     19.320483      0.965448     10.006472
 1790.0    -99.811288     19.417694      0.967333     10.037382
 1795.0   -100.429054     19.514698      0.969191     10.068320
 1800.0   -101.049499     19.611586      0.971028     10.099293
 1805.0   -101.672814     19.708452      0.972845     10.130311
 1810.0   -102.299194     19.805388      0.974648     10.161382
 1815.0   -102.928831     19.902487      0.976440     10.192513
 1820.0   -103.561919     19.999840      0.978223     10.223713
 1825.0   -104.198651     20.097541      0.980004     10.254991
 1830.0   -104.839219     20.195682      0.981784     10.286355
 1835.0   -105.483816     20.294355      0.983568     10.317814
 1840.0   -106.132637     20.393653      0.985359     10.349374
 1845.0   -106.785873     20.493669      0.987161     10.381046
 1850.0   -107.443717     20.594495      0.988978     10.412836
 1855.0   -108.106364     20.696223      0.990814     10.444755
 1860.0   -108.774005     20.798946      0.992672     10.476809
 1865.0   -109.446835     20.902757      0.994555     10.509007
 1870.0   -110.125045     21.007748      0.996469     10.541358
 1875.0   -110.808829     21.114011      0.998416     10.573869
 1880.0   -111.498380     21.221639      1.000400     10.606550
 1885.0   -112.193716     21.330690      1.002424     10.639401
 1890.0   -112.894473     21.441146      1.004488     10.672405
 1895.0   -113.600231     21.552977      1.006592     10.705544
 1900.0   -114.310573     21.666154      1.008736     10.738800
 1905.0   -115.025082     21.780649      1.010920     10.772154
 1910.0   -115.743338     21.896434      1.013144     10.805588
 1915.0   -116.464925     22.013478      1.015408     10.839084
 1920.0   -117.189424     22.131753      1.017712     10.872622
 1925.0   -117.916416     22.251230      1.020056     10.906185
 1930.0   -118.645486     22.371880      1.022440     10.939754
 1935.0   -119.376213     22.493675      1.024864     10.973310
 1940.0   -120.108181     22.616585      1.027328     11.006835
 1945.0   -120.840971     22.740582      1.029832     11.040311
 1950.0   -121.574166     22.865637      1.032375     11.073719
 1955.0   -122.307346     22.991720      1.034959     11.107040
 1960.0   -123.040096     23.118803      1.037582     11.140257
 1965.0   -123.771996     23.246858      1.040245     11.173350
 1970.0   -124.502628     23.375854      1.042948     11.206302
 1975.0   -125.231575     23.505764      1.045691     11.239093
 1980.0   -125.958419     23.636558      1.048473     11.271705
 1985.0   -126.682741     23.768207      1.051295     11.304121
 1990.0   -127.404124     23.900684      1.054157     11.336321
 1995.0   -128.122150     24.033957      1.057059     11.368287
 2000.0   -128.836400     24.168000      1.060000     11.400000
 2005.0   -129.546556     24.302783      1.062981     11.431447
 2010.0   -130.252697     24.438277      1.065999     11.462632
 2015.0   -130.954998     24.574454      1.069053     11.493564
 2020.0   -131.653638     24.711285      1.072141     11.524252
 2025.0   -132.348793     24.848743      1.075261     11.554705
 2030.0   -133.040641     24.986798      1.078410     11.584932
 2035.0   -133.729359     25.125423      1.081588     11.614942
 2040.0   -134.415124     25.264588      1.084792     11.644744
 2045.0   -135.098113     25.404265      1.088019     11.674347
 2050.0   -135.778503     25.544426      1.091269     11.703761
 2055.0   -136.456472     25.685042      1.094539     11.732994
 2060.0   -137.132197     25.826085      1.097828     11.762054
 2065.0   -137.805855     25.967527      1.101132     11.790952
 2070.0   -138.477622     26.109338      1.104451     11.819696
 2075.0   -139.147677     26.251491      1.107782     11.848296
 2080.0   -139.816197     26.393956      1.111124     11.876759
 2085.0   -140.483358     26.536707      1.114474     11.905096
 2090.0   -141.149338     26.679713      1.117830     11.933315
 2095.0   -141.814313     26.822947      1.121191     11.961426
 2100.0   -142.478462     26.966380      1.124555     11.989436
 2105.0   -143.141961     27.109983      1.127919     12.017356
 2110.0   -143.804988     27.253729      1.131282     12.045194
 2115.0   -144.467719     27.397588      1.134642     12.072960
 2120.0   -145.130332     27.541533      1.137997     12.100661
 2125.0   -145.793005     27.685535      1.141344     12.128309
 2130.0   -146.455913     27.829564      1.144682     12.155910
 2135.0   -147.119235     27.973594      1.148010     12.183475
 2140.0   -147.783148     28.117596      1.151324     12.211012
 2145.0   -148.447851     28.261566      1.154625     12.238530
 2150.0   -149.113570     28.405534      1.157911     12.266037
 2155.0   -149.780534     28.549531      1.161185     12.293540
 2160.0   -150.448971     28.693587      1.164446     12.321048
 2165.0   -151.119109     28.837733      1.167695     12.348568
 2170.0   -151.791177     28.982000      1.170933     12.376107
 2175.0   -152.465402     29.126420      1.174159     12.403675
 2180.0   -153.142014     29.271022      1.177374     12.431277
 2185.0   -153.821240     29.415838      1.180579     12.458923
 2190.0   -154.503308     29.560899      1.183774     12.486621
 2195.0   -155.188448     29.706236      1.186959     12.514376
 2200.0   -155.876886     29.851879      1.190136     12.542199
 2205.0   -156.568853     29.997859      1.193304     12.570096
 2210.0   -157.264574     30.144208      1.196464     12.598075
 2215.0   -157.964280     30.290956      1.199616     12.626145
 2220.0   -158.668198     30.438134      1.202761     12.654312
 2225.0   -159.376557     30.585773      1.205899     12.682585
 2230.0   -160.089584     30.733903      1.209031     12.710971
 2235.0   -160.807508     30.882557      1.212157     12.739478
 2240.0   -161.530558     31.031764      1.215278     12.768115
 2245.0   -162.258962     31.181556      1.218394     12.796888
 2250.0   -162.992947     31.331964      1.221505     12.825806
 2255.0   -163.732742     31.483017      1.224613     12.854876
 2260.0   -164.478576     31.634748      1.227717     12.884107
 2265.0   -165.230677     31.787187      1.230817     12.913505
 2270.0   -165.989272     31.940365      1.233915     12.943079
 2275.0   -166.754591     32.094313      1.237011     12.972837
 2280.0   -167.526862     32.249062      1.240105     13.002786
 2285.0   -168.306312     32.404643      1.243198     13.032934
 2290.0   -169.093170     32.561086      1.246290     13.063290
 2295.0   -169.887665     32.718423      1.249382     13.093860
 2300.0   -170.689981     32.876681      1.252473     13.124651
 2305.0   -171.499993     33.035869      1.255566     13.155658
 2310.0   -172.317432     33.195985      1.258660     13.186871
 2315.0   -173.142030     33.357027      1.261756     13.218281
 2320.0   -173.973518     33.518995      1.264855     13.249877
 2325.0   -174.811628     33.681886      1.267958     13.281650
 2330.0   -175.656091     33.845700      1.271065     13.313589
 2335.0   -176.506640     34.010434      1.274177     13.345685
 2340.0   -177.363005     34.176089      1.277296     13.377927
 2345.0   -178.224919     34.342661      1.280421     13.410306
 2350.0   -179.092112     34.510150      1.283553     13.442813
 2355.0   -179.964317     34.678555      1.286693     13.475436
 2360.0   -180.841265     34.847873      1.289843     13.508166
 2365.0   -181.722688     35.018104      1.293002     13.540993
 2370.0   -182.608317     35.189245      1.296171     13.573908
 2375.0   -183.497884     35.361297      1.299351     13.606899
 2380.0   -184.391121     35.534257      1.302543     13.639958
 2385.0   -185.287759     35.708123      1.305748     13.673075
 2390.0   -186.187529     35.882895      1.308966     13.706239
 2395.0   -187.090163     36.058571      1.312198     13.739440
 2400.0   -187.995394     36.235149      1.315444     13.772669
 2405.0   -188.902952     36.412629      1.318707     13.805916
 2410.0   -189.812569     36.591008      1.321985     13.839171
 2415.0   -190.723976     36.770286      1.325280     13.872423
 2420.0   -191.636906     36.950461      1.328593     13.905664
 2425.0   -192.551090     37.131531      1.331925     13.938883
 2430.0   -193.466259     37.313495      1.335276     13.972069
 2435.0   -194.382145     37.496352      1.338646     14.005214
 2440.0   -195.298480     37.680100      1.342038     14.038307
 2445.0   -196.214995     37.864738      1.345450     14.071339
 2450.0   -197.131422     38.050264      1.348885     14.104299
 2455.0   -198.047492     38.236678      1.352343     14.137177
 2460.0   -198.962937     38.423977      1.355824     14.169964
 2465.0   -199.877489     38.612160      1.359330     14.202650
 2470.0   -200.790879     38.801226      1.362860     14.235225
 2475.0   -201.702839     38.991173      1.366417     14.267678
 2480.0   -202.613100     39.182000      1.370000     14.300000
 2485.0   -203.521453     39.373704      1.373610     14.332183
 2490.0   -204.427921     39.566273      1.377247     14.364229
 2495.0   -205.332587     39.759695      1.380909     14.396140
 2500.0   -206.235534     39.953958      1.384597     14.427920
 2505.0   -207.136843     40.149047      1.388309     14.459572
 2510.0   -208.036598     40.344950      1.392044     14.491100
 2515.0   -208.934880     40.541654      1.395802     14.522506
 2520.0   -209.831773     40.739147      1.399582     14.553794
 2525.0   -210.727359     40.937416      1.403384     14.584967
 2530.0   -211.621720     41.136446      1.407206     14.616029
 2535.0   -212.514939     41.336227      1.411048     14.646983
 2540.0   -213.407098     41.536745      1.414909     14.677831
 2545.0   -214.298280     41.737986      1.418789     14.708578
 2550.0   -215.188567     41.939939      1.422686     14.739227
 2555.0   -216.078042     42.142590      1.426600     14.769781
 2560.0   -216.966787     42.345926      1.430530     14.800242
 2565.0   -217.854885     42.549934      1.434475     14.830616
 2570.0   -218.742417     42.754603      1.438435     14.860904
 2575.0   -219.629468     42.959917      1.442409     14.891110
 2580.0   -220.516118     43.165866      1.446396     14.921237
 2585.0   -221.402451     43.372436      1.450395     14.951289
 2590.0   -222.288549     43.579614      1.454406     14.981269
 2595.0   -223.174495     43.787386      1.458428     15.011180
 2600.0   -224.060370     43.995742      1.462460     15.041026
 2605.0   -224.946258     44.204666      1.466501     15.070809
 2610.0   -225.832241     44.414147      1.470551     15.100533
 2615.0   -226.718401     44.624172      1.474609     15.130202
 2620.0   -227.604822     44.834728      1.478674     15.159818
 2625.0   -228.491584     45.045802      1.482745     15.189385
 2630.0   -229.378772     45.257380      1.486822     15.218906
 2635.0   -230.266467     45.469451      1.490904     15.248384
 2640.0   -231.154751     45.682001      1.494991     15.277824
 2645.0   -232.043708     45.895017      1.499080     15.307227
 2650.0   -232.933420     46.108487      1.503172     15.336597
 2655.0   -233.823969     46.322398      1.507267     15.365938
 2660.0   -234.715438     46.536736      1.511362     15.395253
 2665.0   -235.607909     46.751489      1.515458     15.424545
 2670.0   -236.501464     46.966645      1.519553     15.453818
 2675.0   -237.396187     47.182189      1.523648     15.483074
 2680.0   -238.292160     47.398110      1.527740     15.512317
 2685.0   -239.189464     47.614394      1.531830     15.541550
 2690.0   -240.088184     47.831028      1.535917     15.570776
 2695.0   -240.988400     48.048000      1.540000     15.600000
 2700.0   -241.890182     48.265300      1.544078     15.629223
 2705.0   -242.793542     48.482935      1.548152     15.658446
 2710.0   -243.698477     48.700913      1.552221     15.687669
 2715.0   -244.604988     48.919244      1.556287     15.716892
 2720.0   -245.513071     49.137937      1.560349     15.746114
 2725.0   -246.422725     49.357002      1.564407     15.775336
 2730.0   -247.333949     49.576448      1.568463     15.804558
 2735.0   -248.246740     49.796284      1.572516     15.833779
 2740.0   -249.161097     50.016520      1.576566     15.862999
 2745.0   -250.077019     50.237165      1.580614     15.892218
 2750.0   -250.994503     50.458228      1.584661     15.921437
 2755.0   -251.913547     50.679720      1.588705     15.950654
 2760.0   -252.834152     50.901648      1.592749     15.979871
 2765.0   -253.756313     51.124024      1.596791     16.009086
 2770.0   -254.680030     51.346855      1.600833     16.038300
 2775.0   -255.605302     51.570151      1.604874     16.067513
 2780.0   -256.532125     51.793923      1.608915     16.096724
 2785.0   -257.460500     52.018178      1.612957     16.125934
 2790.0   -258.390423     52.242927      1.616998     16.155142
 2795.0   -259.321894     52.468179      1.621041     16.184348
 2800.0   -260.254910     52.693943      1.625084     16.213553
 2805.0   -261.189470     52.920229      1.629129     16.242756
 2810.0   -262.125572     53.147046      1.633176     16.271956
 2815.0   -263.063214     53.374403      1.637224     16.301155
 2820.0   -264.002396     53.602310      1.641275     16.330351
 2825.0   -264.943114     53.830776      1.645328     16.359545
 2830.0   -265.885368     54.059811      1.649384     16.388736
 2835.0   -266.829155     54.289423      1.653443     16.417925
 2840.0   -267.774475     54.519623      1.657505     16.447111
 2845.0   -268.721324     54.750420      1.661571     16.476295
 2850.0   -269.669703     54.981822      1.665641     16.505476
 2855.0   -270.619608     55.213840      1.669715     16.534654
 2860.0   -271.571038     55.446483      1.673793     16.563829
 2865.0   -272.523992     55.679760      1.677877     16.593001
 2870.0   -273.478467     55.913680      1.681965     16.622170
 2875.0   -274.434462     56.148253      1.686059     16.651335
 2880.0   -275.391976     56.383489      1.690159     16.680497
 2885.0   -276.351007     56.619396      1.694264     16.709656
 2890.0   -277.311552     56.855985      1.698376     16.738811
 2895.0   -278.273611     57.093263      1.702495     16.767962
 2900.0   -279.237181     57.331242      1.706620     16.797110
 2905.0   -280.202261     57.569930      1.710752     16.826254
 2910.0   -281.168850     57.809336      1.714892     16.855394
 2915.0   -282.136944     58.049470      1.719040     16.884530
 2920.0   -283.106544     58.290342      1.723195     16.913661
 2925.0   -284.077646     58.531960      1.727359     16.942789
 2930.0   -285.050250     58.774334      1.731532     16.971912
 2935.0   -286.024354     59.017474      1.735713     17.001031
 2940.0   -286.999955     59.261388      1.739904     17.030145
 2945.0   -287.977053     59.506087      1.744104     17.059254
 2950.0   -288.955645     59.751579      1.748313     17.088359
 2955.0   -289.935730     59.997874      1.752533     17.117459
 2960.0   -290.917306     60.244975      1.756763     17.146555
 2965.0   -291.900370     60.492884      1.761003     17.175645
 2970.0   -292.884920     60.741600      1.765253     17.204731
 2975.0   -293.870953     60.991123      1.769513     17.233811
 2980.0   -294.858468     61.241454      1.773783     17.262887
 2985.0   -295.847461     61.492593      1.778063     17.291958
 2990.0   -296.837930     61.744540      1.782352     17.321023
 2995.0   -297.829874     61.997296      1.786652     17.350084
 3000.0   -298.823288     62.250860      1.790961     17.379140
 3050.0   -308.837829     64.831026      1.834576     17.669420
 3100.0   -318.996851     67.492301      1.879106     17.959181
 3150.0   -329.297939     70.234911      1.924499     18.248408
 3200.0   -339.738676     73.059078      1.970705     18.537083
 3250.0   -350.316647     75.965029      2.017671     18.825188
 3300.0   -361.029934     78.952373      2.065335     19.112715
 3350.0   -371.881111     82.015185      2.113543     19.399732
 3400.0   -382.875127     85.144613      2.162092     19.686347
 3450.0   -394.016953     88.331779      2.210778     19.972667
 3500.0   -405.311561     91.567802      2.259396     20.258802
 3550.0   -416.763922     94.843803      2.307743     20.544861
 3600.0   -428.379007     98.150904      2.355616     20.830950
 3650.0   -440.161786    101.480225      2.402809     21.117180
 3700.0   -452.116403    104.828303      2.449232     21.403643
 3750.0   -464.244230    108.209772      2.495171     21.690387
 3800.0   -476.546059    111.643049      2.540992     21.977447
 3850.0   -489.022684    115.146545      2.587059     22.264859
 3900.0   -501.674900    118.738675      2.633737     22.552661
 3950.0   -514.503498    122.437854      2.681391     22.840887
 4000.0   -527.509274    126.262495      2.730386     23.129574
 4050.0   -540.693020    130.231013      2.781087     23.418758
 4100.0   -554.055531    134.361820      2.833859     23.708476
 4150.0   -567.597355    138.673062      2.889061     23.998759
 4200.0   -581.305076    143.167432      2.946757     24.289367
 4250.0   -595.144012    147.824094      3.006552     24.579645
 4300.0   -609.077698    152.620242      3.068017     24.868905
 4350.0   -623.069665    157.533065      3.130723     25.156458
 4400.0   -637.083446    162.539755      3.194238     25.441615
 4450.0   -651.083952    167.617949      3.258139     25.723713
 4500.0   -665.078848    172.759157      3.322199     26.002878
 4550.0   -679.125806    177.971116      3.386420     26.280158
 4600.0   -693.285337    183.262482      3.450818     26.556652
 4650.0   -707.617952    188.641912      3.515408     26.833462
 4700.0   -722.184162    194.118062      3.580207     27.111687
 4750.0   -737.044478    199.699589      3.645229     27.392429
 4800.0   -752.254767    205.394646      3.710493     27.676706
 4850.0   -767.806614    211.204415      3.776035     27.964399
 4900.0   -783.644664    217.124986      3.841906     28.254559
 4950.0   -799.712493    223.152332      3.908158     28.546219
 5000.0   -815.953675    229.282429      3.974843     28.838411
 5050.0   -832.311785    235.511251      4.042012     29.130168
 5100.0   -848.730399    241.834771      4.109719     29.420521
 5150.0   -865.153093    248.248965      4.178013     29.708504
 5200.0   -881.528147    254.750460      4.246946     29.993229
 5250.0   -897.856009    261.343115      4.316556     30.274702
 5300.0   -914.169597    268.035294      4.386873     30.553484
 5350.0   -930.502320    274.835428      4.457927     30.830143
 5400.0   -946.887588    281.751949      4.529748     31.105249
 5450.0   -963.358809    288.793287      4.602366     31.379371
 5500.0   -979.949394    295.967875      4.675810     31.653079
 5550.0   -996.692751    303.284144      4.750111     31.926942
 5600.0  -1013.622291    310.750524      4.825299     32.201529
 5650.0  -1030.771175    318.375366      4.901403     32.477406
 5700.0  -1048.149960    326.159627      4.978402     32.754781
 5750.0  -1065.728752    334.091030      5.056185     33.033223
 5800.0  -1083.473456    342.155927      5.134631     33.312236
 5850.0  -1101.349980    350.340669      5.213619     33.591322
 5900.0  -1119.324229    358.631605      5.293029     33.869987
 5950.0  -1137.362111    367.015089      5.372740     34.147731
 6000.0  -1155.429531    375.477469      5.452631     34.424060
 6050.0  -1173.492396    384.005097      5.532582     34.698476
 6100.0  -1191.516613    392.584324      5.612471     34.970482
 6150.0  -1209.468087    401.201502      5.692179     35.239581
 6200.0  -1227.312725    409.842979      5.771584     35.505277
 6250.0  -1245.039146    418.503968      5.850635     35.767399
 6300.0  -1262.721518    427.213046      5.929539     36.027000
 6350.0  -1280.454158    436.006653      6.008566     36.285422
 6400.0  -1298.331377    444.921225      6.087983     36.544009
 6450.0  -1316.447491    453.993200      6.168060     36.804101
 6500.0  -1334.896813    463.259016      6.249065     37.067042
 6550.0  -1353.770088    472.753790      6.331258     37.334124
 6600.0  -1373.075971    482.482325      6.414681     37.605492
 6650.0  -1392.741028    492.419104      6.499158     37.880143
 6700.0  -1412.688258    502.537292      6.584504     38.157026
 6750.0  -1432.840656    512.810054      6.670533     38.435089
 6800.0  -1453.121221    523.210555      6.757062     38.713279
 6850.0  -1473.452948    533.711959      6.843904     38.990544
 6900.0  -1493.759048    544.287512      6.930875     39.265836
 6950.0  -1513.991024    554.921074      7.017865     39.538494
 7000.0  -1534.156872    565.617698      7.104906     39.808642
 7050.0  -1554.271295    576.384956      7.192051     40.076493
 7100.0  -1574.348997    587.230418      7.279351     40.342261
 7150.0  -1594.404683    598.161656      7.366859     40.606161
 7200.0  -1614.453056    609.186239      7.454625     40.868406
 7250.0  -1634.508821    620.311740      7.542701     41.129212
 7300.0  -1654.586681    631.545729      7.631139     41.388791
 7350.0  -1674.701340    642.895777      7.719991     41.647358
 7400.0  -1694.867503    654.369456      7.809308     41.905128
 7450.0  -1715.099873    665.974335      7.899142     42.162315
 7500.0  -1735.413155    677.717985      7.989544     42.419131
 7550.0  -1755.822052    689.607979      8.080566     42.675793
 7600.0  -1776.341269    701.651887      8.172260     42.932514
 7650.0  -1796.985509    713.857279      8.264677     43.189508
 7700.0  -1817.769477    726.231727      8.357870     43.446989
 7750.0  -1838.707876    738.782801      8.451889     43.705172
 7800.0  -1859.811877    751.514730      8.546755     43.964211
 7850.0  -1881.079332    764.419146      8.642368     44.224036
 7900.0  -1902.504960    777.484717      8.738604     44.484527
 7950.0  -1924.083480    790.700110      8.835334     44.745560
 8000.0  -1945.809611    804.053994      8.932433     45.007013
 8050.0  -1967.678071    817.535035      9.029774     45.268764
 8100.0  -1989.683578    831.131903      9.127230     45.530692
 8150.0  -2011.820853    844.833264      9.224674     45.792673
 8200.0  -2034.084612    858.627785      9.321981     46.054586
 8250.0  -2056.469576    872.504136      9.419023     46.316309
 8300.0  -2078.969039    886.451812      9.515688     46.577714
 8350.0  -2101.560531    900.469489      9.612019     46.838615
 8400.0  -2124.211766    914.561558      9.708155     47.098791
 8450.0  -2146.890309    928.732495      9.804236     47.358018
 8500.0  -2169.563726    942.986778      9.900405     47.616074
 8550.0  -2192.199582    957.328884      9.996800     47.872736
 8600.0  -2214.765443    971.763290     10.093564     48.127781
 8650.0  -2237.228875    986.294472     10.190837     48.380986
 8700.0  -2259.557443   1000.926909     10.288760     48.632130
 8750.0  -2281.718712   1015.665077     10.387473     48.880988
 8800.0  -2303.680248   1030.513452     10.487118     49.127339
 8850.0  -2325.409618   1045.476513     10.587835     49.370960
 8900.0  -2346.892934   1060.562814     10.689750     49.611782
 8950.0  -2368.222979   1075.804360     10.792905     49.850635
 9000.0  -2389.530587   1091.241521     10.897307     50.088662
 9050.0  -2410.946637   1106.914679     11.002969     50.327011
 9100.0  -2432.602013   1122.864214     11.109899     50.566829
 9150.0  -2454.627594   1139.130507     11.218108     50.809260
 9200.0  -2477.154262   1155.753940     11.327606     51.055453
 9250.0  -2500.312897   1172.774893     11.438403     51.306552
 9300.0  -2524.234381   1190.233746     11.550509     51.563706
 9350.0  -2549.049595   1208.170882     11.663933     51.828059
 9400.0  -2574.889419   1226.626680     11.778686     52.100758
 9450.0  -2601.884736   1245.641522     11.894778     52.382950
 9500.0  -2630.166425   1265.255789     12.012219     52.675781
 9550.0  -2659.863712   1285.509312     12.131018     52.980383
 9600.0  -2690.923984   1306.381648     12.251104     53.296277
 9650.0  -2722.951024   1327.738453     12.372250     53.619940
 9700.0  -2755.510436   1349.432728     12.494214     53.947512
 9750.0  -2788.167823   1371.317474     12.616755     54.275131
 9800.0  -2820.488790   1393.245692     12.739629     54.598938
 9850.0  -2852.038941   1415.070383     12.862594     54.915071
 9900.0  -2882.383881   1436.644549     12.985408     55.219671
 9950.0  -2911.089213   1457.821190     13.107828     55.508875
10000.0  -2937.720542   1478.453307     13.229612     55.778825
10050.0  -2961.843472   1498.393902     13.350517     56.025658
10100.0  -2983.023608   1517.495976     13.470301     56.245515
10150.0  -3000.826553   1535.612529     13.588722     56.434534
10200.0  -3014.817913   1552.596564     13.705537     56.588855
10250.0  -3024.563290   1568.301080     13.820503     56.704618
10300.0  -3029.628290   1582.579080     13.933379     56.777961
10350.0  -3029.589396   1595.287148     14.043927     56.805123
10400.0  -3024.446020   1606.421215     14.152130     56.786144
10450.0  -3014.746975   1616.158223     14.258255     56.726013
10500.0  -3001.077791   1624.687214     14.362586     56.630045
10550.0  -2984.023999   1632.197228     14.465411     56.503558
10600.0  -2964.171127   1638.877305     14.567015     56.351867
10650.0  -2942.104705   1644.916487     14.667683     56.180289
10700.0  -2918.410265   1650.503814     14.767701     55.994142
10750.0  -2893.673334   1655.828326     14.867356     55.798741
10800.0  -2868.479445   1661.079064     14.966932     55.599403
10850.0  -2843.414125   1666.445069     15.066717     55.401446
10900.0  -2819.062906   1672.115382     15.166995     55.210185
10950.0  -2796.011317   1678.279042     15.268052     55.030937
11000.0  -2774.844888   1685.125091     15.370174     54.869019
11050.0  -2756.149150   1692.842570     15.473647     54.729747
11100.0  -2740.509631   1701.620518     15.578757     54.618438
11150.0  -2728.447579   1711.627548     15.685759     54.539825
11200.0  -2720.009153   1722.881283     15.794690     54.494315
11250.0  -2715.027574   1735.331675     15.905489     54.480383
11300.0  -2713.335060   1748.928357     16.018093     54.496492
11350.0  -2714.763829   1763.620961     16.132440     54.541104
11400.0  -2719.146098   1779.359119     16.248467     54.612683
11450.0  -2726.314085   1796.092464     16.366112     54.709693
11500.0  -2736.100008   1813.770629     16.485312     54.830597
11550.0  -2748.336083   1832.343246     16.606006     54.973858
11600.0  -2762.854530   1851.759947     16.728131     55.137940
11650.0  -2779.487564   1871.970365     16.851624     55.321306
11700.0  -2798.067404   1892.924132     16.976424     55.522419
11750.0  -2818.426268   1914.570881     17.102468     55.739744
11800.0  -2840.396373   1936.860244     17.229693     55.971742
11850.0  -2863.809936   1959.741854     17.358037     56.216878
11900.0  -2888.499176   1983.165343     17.487439     56.473615
11950.0  -2914.296309   2007.080344     17.617834     56.740416
12000.0  -2941.033554   2031.436488     17.749162     57.015745
12050.0  -2968.543128   2056.183409     17.881360     57.298065
12100.0  -2996.657248   2081.270740     18.014366     57.585840
12150.0  -3025.208133   2106.648111     18.148117     57.877532
12200.0  -3054.027999   2132.265157     18.282550     58.171606
12250.0  -3082.949065   2158.071509     18.417604     58.466524
12300.0  -3111.803547   2184.016799     18.553216     58.760749
12350.0  -3140.423665   2210.050661     18.689324     59.052747
12400.0  -3168.641634   2236.122727     18.825866     59.340979
12450.0  -3196.289673   2262.182629     18.962779     59.623909
12500.0  -3223.200000   2288.180000     19.100000     59.900000
12550.0  -3249.237856   2314.074369     19.237479     60.168019
12600.0  -3274.400581   2339.864855     19.375207     60.427940
12650.0  -3298.718539   2365.560472     19.513189     60.680041
12700.0  -3322.222093   2391.170238     19.651426     60.924600
12750.0  -3344.941609   2416.703166     19.789923     61.161895
12800.0  -3366.907449   2442.168273     19.928683     61.392203
12850.0  -3388.149978   2467.574573     20.067708     61.615803
12900.0  -3408.699560   2492.931083     20.207003     61.832971
12950.0  -3428.586559   2518.246818     20.346570     62.043985
13000.0  -3447.841338   2543.530794     20.486413     62.249124
13050.0  -3466.494262   2568.792025     20.626534     62.448664
13100.0  -3484.575695   2594.039527     20.766937     62.642885
13150.0  -3502.116000   2619.282316     20.907626     62.832062
13200.0  -3519.145542   2644.529407     21.048603     63.016475
13250.0  -3535.694684   2669.789816     21.189872     63.196400
13300.0  -3551.793791   2695.072558     21.331437     63.372115
13350.0  -3567.473227   2720.386649     21.473299     63.543899
13400.0  -3582.763355   2745.741104     21.615463     63.712029
13450.0  -3597.694539   2771.144938     21.757931     63.876782
13500.0  -3612.297144   2796.607167     21.900708     64.038436
13550.0  -3626.601534   2822.136807     22.043796     64.197270
13600.0  -3640.638071   2847.742873     22.187198     64.353560
13650.0  -3654.437121   2873.434380     22.330918     64.507584
13700.0  -3668.029048   2899.220344     22.474958     64.659621
13750.0  -3681.444214   2925.109780     22.619323     64.809947
13800.0  -3694.712985   2951.111704     22.764016     64.958841
13850.0  -3707.865725   2977.235131     22.909039     65.106580
13900.0  -3720.932796   3003.489077     23.054395     65.253442
13950.0  -3733.944563   3029.882557     23.200089     65.399705
14000.0  -3746.931391   3056.424587     23.346124     65.545646
14050.0  -3759.923643   3083.124182     23.492501     65.691543
14100.0  -3772.951683   3109.990357     23.639226     65.837674
14150.0  -3786.045875   3137.032129     23.786301     65.984317
14200.0  -3799.236583   3164.258512     23.933729     66.131748
14250.0  -3812.554171   3191.678522     24.081513     66.280246
14300.0  -3826.028948   3219.301154     24.229658     66.430089
14350.0  -3839.679432   3247.131068     24.378162     66.581452
14400.0  -3853.497840   3275.163254     24.527016     66.734286
14450.0  -3867.472829   3303.391391     24.676213     66.888513
14500.0  -3881.593056   3331.809159     24.825743     67.044051
14550.0  -3895.847179   3360.410239     24.975595     67.200823
14600.0  -3910.223855   3389.188311     25.125762     67.358748
14650.0  -3924.711741   3418.137055     25.276233     67.517747
14700.0  -3939.299494   3447.250152     25.427000     67.677740
14750.0  -3953.975771   3476.521281     25.578052     67.838649
14800.0  -3968.729230   3505.944123     25.729382     68.000393
14850.0  -3983.548528   3535.512359     25.880978     68.162893
14900.0  -3998.422322   3565.219667     26.032833     68.326070
14950.0  -4013.339269   3595.059730     26.184937     68.489843
