#Lambda        Dielectric Constant          Refractive Index
# [nm]        [Real]        [Imag]        [Real]        [Imag]
   30.0      0.827734      0.050811      0.913703      0.025001
   35.0      0.644986      0.117275      0.806417      0.072717
   40.0      0.495849      0.177320      0.715000      0.124000
   45.0      0.373506      0.275972      0.647259      0.213131
   50.0      0.205557      0.423605      0.581618      0.364206
   55.0      0.147566      0.673000      0.646840      0.520391
   60.0      0.152623      0.862679      0.717134      0.601391
   65.0      0.230690      0.990683      0.789906      0.627116
   70.0      0.260691      1.016860      0.809443      0.628024
   75.0      0.166252      1.000573      0.768306      0.651676
   80.0      0.008275      1.105923      0.746345      0.740050
   85.0     -0.095544      1.277787      0.770139      0.830340
   90.0     -0.144940      1.438880      0.806441      0.891610
   95.0     -0.159339      1.621076      0.857195      0.945527
  100.0     -0.163312      1.668099      0.868815      0.958894
  105.0     -0.285115      1.680909      0.844002      0.997863
  110.0     -0.550914      1.798134      0.818209      1.103061
  115.0     -0.783049      2.074769      0.844279      1.224391
  120.0     -0.890891      2.465437      0.926930      1.324656
  125.0     -0.899850      2.821307      1.015797      1.389599
  130.0     -0.860027      3.089293      1.083387      1.426049
  135.0     -0.835983      3.393739      1.152573      1.471261
  140.0     -0.754684      3.633733      1.216249      1.494558
  145.0     -0.606332      3.784272      1.270238      1.489868
  150.0     -0.497570      3.987047      1.326333      1.502336
  155.0     -0.436500      4.222800      1.380000      1.530000
  160.0     -0.393283      4.421686      1.422530      1.554643
  165.0     -0.365838      4.602438      1.457944      1.578440
  170.0     -0.352273      4.797754      1.492935      1.606344
  175.0     -0.318169      5.000851      1.531731      1.632117
  180.0     -0.222415      5.194385      1.577560      1.646826
  185.0     -0.073206      5.381245      1.629378      1.652164
  190.0      0.081264      5.580737      1.682681      1.658444
  195.0      0.201419      5.807535      1.733621      1.674046
  200.0      0.307468      6.045075      1.782980      1.693995
  205.0      0.442219      6.264988      1.833287      1.708269
  210.0      0.644763      6.441091      1.886832      1.707683
  215.0      0.912546      6.571685      1.943177      1.692422
  220.0      1.217091      6.670310      2.000183      1.668506
  225.0      1.529529      6.750739      2.055689      1.642044
  230.0      1.824705      6.823822      2.107698      1.618127
  235.0      2.096371      6.885532      2.155052      1.596671
  240.0      2.344278      6.927126      2.196862      1.575947
  245.0      2.568182      6.939856      2.232235      1.554228
  250.0      2.767848      6.915165      2.260303      1.529817
  255.0      2.943520      6.851891      2.280995      1.502225
  260.0      3.096060      6.758483      2.295276      1.472536
  265.0      3.226372      6.644029      2.304183      1.441937
  270.0      3.335361      6.517617      2.308751      1.411616
  275.0      3.423931      6.388336      2.310015      1.382759
  280.0      3.493190      6.263983      2.308916      1.356353
  285.0      3.545348      6.145365      2.305873      1.332281
  290.0      3.582988      6.030938      2.301127      1.310061
  295.0      3.608691      5.919154      2.294924      1.289207
  300.0      3.625039      5.808468      2.287506      1.269236
  305.0      3.634615      5.697332      2.279117      1.249661
  310.0      3.640000      5.584200      2.270000      1.230000
  315.0      3.643118      5.467935      2.260317      1.209888
  320.0      3.643257      5.349034      2.249907      1.189448
  325.0      3.639045      5.228407      2.238527      1.168921
  330.0      3.629112      5.106959      2.225933      1.148551
  335.0      3.612087      4.985598      2.211882      1.128581
  340.0      3.586598      4.865232      2.196132      1.109253
  345.0      3.551275      4.746768      2.178440      1.090810
  350.0      3.504746      4.631114      2.158563      1.073495
  355.0      3.445643      4.519177      2.136258      1.057551
  360.0      3.373136      4.411700      2.111399      1.043206
  365.0      3.287749      4.309022      2.084152      1.030657
  370.0      3.190213      4.211417      2.054726      1.020095
  375.0      3.081259      4.119160      2.023332      1.011708
  380.0      2.961617      4.032525      1.990179      1.005689
  385.0      2.832018      3.951788      1.955478      1.002226
  390.0      2.693193      3.877224      1.919439      1.001512
  395.0      2.545874      3.809106      1.882272      1.003737
  400.0      2.390790      3.747711      1.844187      1.009090
  405.0      2.228673      3.693313      1.805394      1.017762
  410.0      2.060254      3.646186      1.766103      1.029944
  415.0      1.886262      3.606604      1.726524      1.045824
  420.0      1.707328      3.574695      1.686855      1.065426
  425.0      1.523938      3.550372      1.647278      1.088524
  430.0      1.336562      3.533527      1.607971      1.114875
  435.0      1.145672      3.524055      1.569115      1.144232
  440.0      0.951739      3.521848      1.530887      1.176349
  445.0      0.755236      3.526800      1.493469      1.210983
  450.0      0.556634      3.538805      1.457038      1.247886
  455.0      0.356404      3.557756      1.421774      1.286814
  460.0      0.155018      3.583546      1.387858      1.327522
  465.0     -0.047052      3.616070      1.355467      1.369763
  470.0     -0.249335      3.655220      1.324782      1.413293
  475.0     -0.451359      3.700889      1.295981      1.457866
  480.0     -0.652653      3.752973      1.269245      1.503236
  485.0     -0.852744      3.811363      1.244752      1.549159
  490.0     -1.051162      3.875954      1.222682      1.595389
  495.0     -1.247435      3.946638      1.203214      1.641680
  500.0     -1.441142      4.023299      1.186500      1.687808
  505.0     -1.632218      4.105752      1.172500      1.733697
  510.0     -1.820748      4.193781      1.161093      1.779333
  515.0     -2.006816      4.287170      1.152157      1.824700
  520.0     -2.190508      4.385703      1.145571      1.869786
  525.0     -2.371910      4.489165      1.141213      1.914576
  530.0     -2.551107      4.597341      1.138963      1.959056
  535.0     -2.728183      4.710014      1.138698      2.003212
  540.0     -2.903225      4.826970      1.140297      2.047031
  545.0     -3.076318      4.947993      1.143638      2.090497
  550.0     -3.247546      5.072866      1.148601      2.133598
  555.0     -3.416995      5.201375      1.155064      2.176319
  560.0     -3.584751      5.333304      1.162905      2.218645
  565.0     -3.750899      5.468437      1.172003      2.260564
  570.0     -3.915524      5.606559      1.182236      2.302060
  575.0     -4.078711      5.747454      1.193483      2.343121
  580.0     -4.240546      5.890907      1.205623      2.383731
  585.0     -4.401114      6.036701      1.218533      2.423877
  590.0     -4.560500      6.184622      1.232094      2.463545
  595.0     -4.718789      6.334454      1.246182      2.502721
  600.0     -4.876068      6.485981      1.260677      2.541390
  605.0     -5.032420      6.638988      1.275458      2.579539
  610.0     -5.187932      6.793259      1.290402      2.617154
  615.0     -5.342689      6.948578      1.305389      2.654220
  620.0     -5.496776      7.104730      1.320297      2.690724
  625.0     -5.650260      7.261534      1.335026      2.726656
  630.0     -5.803146      7.418939      1.349562      2.762022
  635.0     -5.955420      7.576926      1.363910      2.796831
  640.0     -6.107070      7.735475      1.378074      2.831093
  645.0     -6.258084      7.894566      1.392059      2.864819
  650.0     -6.408448      8.054178      1.405870      2.898017
  655.0     -6.558151      8.214293      1.419511      2.930697
  660.0     -6.707181      8.374891      1.432988      2.962870
  665.0     -6.855524      8.535951      1.446305      2.994545
  670.0     -7.003168      8.697454      1.459467      3.025731
  675.0     -7.150101      8.859380      1.472479      3.056439
  680.0     -7.296311      9.021709      1.485345      3.086677
  685.0     -7.441784      9.184421      1.498070      3.116457
  690.0     -7.586508      9.347497      1.510660      3.145787
  695.0     -7.730472      9.510917      1.523118      3.174677
  700.0     -7.873662      9.674660      1.535449      3.203137
  705.0     -8.016066      9.838708      1.547659      3.231177
  710.0     -8.157672     10.003039      1.559752      3.258807
  715.0     -8.298467     10.167635      1.571732      3.286036
  720.0     -8.438439     10.332476      1.583605      3.312873
  725.0     -8.577575     10.497541      1.595376      3.339330
  730.0     -8.715862     10.662812      1.607049      3.365414
  735.0     -8.853289     10.828267      1.618628      3.391137
  740.0     -8.989843     10.993887      1.630119      3.416508
  745.0     -9.125511     11.159653      1.641527      3.441536
  750.0     -9.260281     11.325545      1.652856      3.466232
  755.0     -9.394140     11.491543      1.664110      3.490604
  760.0     -9.527077     11.657626      1.675296      3.514663
  765.0     -9.659078     11.823775      1.686417      3.538419
  770.0     -9.790131     11.989971      1.697478      3.561881
  775.0     -9.920224     12.156194      1.708484      3.585060
  780.0    -10.049344     12.322423      1.719440      3.607963
  785.0    -10.177479     12.488638      1.730351      3.630602
  790.0    -10.304616     12.654821      1.741220      3.652987
  795.0    -10.430743     12.820951      1.752054      3.675126
  800.0    -10.555848     12.987009      1.762857      3.697030
  805.0    -10.679917     13.152974      1.773634      3.718708
  810.0    -10.802939     13.318826      1.784388      3.740170
  815.0    -10.924900     13.484547      1.795126      3.761426
  820.0    -11.045789     13.650116      1.805852      3.782486
  825.0    -11.165594     13.815513      1.816571      3.803359
  830.0    -11.284302     13.980719      1.827287      3.824054
  835.0    -11.401915     14.145730      1.838001      3.844576
  840.0    -11.518443     14.310547      1.848715      3.864926
  845.0    -11.633895     14.475174      1.859427      3.885106
  850.0    -11.748281     14.639613      1.870137      3.905116
  855.0    -11.861610     14.803868      1.880846      3.924958
  860.0    -11.973892     14.967941      1.891553      3.944632
  865.0    -12.085136     15.131834      1.902258      3.964140
  870.0    -12.195351     15.295551      1.912962      3.983484
  875.0    -12.304548     15.459095      1.923663      4.002664
  880.0    -12.412736     15.622467      1.934362      4.021681
  885.0    -12.519923     15.785672      1.945058      4.040537
  890.0    -12.626121     15.948712      1.955752      4.059233
  895.0    -12.731338     16.111589      1.966443      4.077770
  900.0    -12.835584     16.274307      1.977131      4.096149
  905.0    -12.938868     16.436867      1.987817      4.114372
  910.0    -13.041200     16.599274      1.998499      4.132439
  915.0    -13.142589     16.761530      2.009178      4.150352
  920.0    -13.243045     16.923638      2.019854      4.168111
  925.0    -13.342577     17.085600      2.030527      4.185719
  930.0    -13.441196     17.247419      2.041195      4.203176
  935.0    -13.538909     17.409099      2.051860      4.220484
  940.0    -13.635728     17.570641      2.062522      4.237643
  945.0    -13.731661     17.732049      2.073179      4.254655
  950.0    -13.826718     17.893325      2.083832      4.271521
  955.0    -13.920909     18.054473      2.094481      4.288242
  960.0    -14.014242     18.215495      2.105125      4.304820
  965.0    -14.106728     18.376394      2.115765      4.321255
  970.0    -14.198377     18.537173      2.126401      4.337549
  975.0    -14.289196     18.697834      2.137031      4.353702
  980.0    -14.379197     18.858380      2.147657      4.369717
  985.0    -14.468388     19.018815      2.158278      4.385594
  990.0    -14.556779     19.179140      2.168893      4.401334
  995.0    -14.644380     19.339360      2.179503      4.416939
 1000.0    -14.731200     19.499475      2.190108      4.432410
 1005.0    -14.817248     19.659491      2.200707      4.447747
 1010.0    -14.902535     19.819408      2.211301      4.462953
 1015.0    -14.987069     19.979230      2.221889      4.478028
 1020.0    -15.070861     20.138961      2.232471      4.492973
 1025.0    -15.153919     20.298601      2.243046      4.507790
 1030.0    -15.236253     20.458155      2.253616      4.522480
 1035.0    -15.317874     20.617626      2.264179      4.537044
 1040.0    -15.398789     20.777015      2.274736      4.551483
 1045.0    -15.479009     20.936326      2.285286      4.565799
 1050.0    -15.558543     21.095562      2.295829      4.579992
 1055.0    -15.637401     21.254725      2.306366      4.594063
 1060.0    -15.715592     21.413818      2.316896      4.608015
 1065.0    -15.793126     21.572845      2.327418      4.621847
 1070.0    -15.870013     21.731807      2.337933      4.635562
 1075.0    -15.946261     21.890708      2.348441      4.649161
 1080.0    -16.021881     22.049550      2.358941      4.662643
 1085.0    -16.096881     22.208336      2.369434      4.676012
 1090.0    -16.171272     22.367070      2.379919      4.689268
 1095.0    -16.245062     22.525753      2.390396      4.702411
 1100.0    -16.318263     22.684389      2.400865      4.715444
 1105.0    -16.390881     22.842981      2.411326      4.728368
 1110.0    -16.462929     23.001531      2.421778      4.741183
 1115.0    -16.534414     23.160042      2.432222      4.753891
 1120.0    -16.605347     23.318516      2.442658      4.766493
 1125.0    -16.675737     23.476958      2.453085      4.778990
 1130.0    -16.745593     23.635369      2.463503      4.791384
 1135.0    -16.814925     23.793752      2.473912      4.803675
 1140.0    -16.883743     23.952110      2.484312      4.815865
 1145.0    -16.952056     24.110447      2.494703      4.827955
 1150.0    -17.019873     24.268764      2.505084      4.839946
 1155.0    -17.087204     24.427064      2.515456      4.851839
 1160.0    -17.154059     24.585351      2.525818      4.863635
 1165.0    -17.220447     24.743627      2.536171      4.875336
 1170.0    -17.286378     24.901895      2.546514      4.886943
 1175.0    -17.351860     25.060158      2.556847      4.898457
 1180.0    -17.416905     25.218418      2.567169      4.909879
 1185.0    -17.481520     25.376678      2.577482      4.921211
 1190.0    -17.545716     25.534942      2.587784      4.932452
 1195.0    -17.609503     25.693212      2.598075      4.943606
 1200.0    -17.672889     25.851490      2.608356      4.954672
 1205.0    -17.735884     26.009780      2.618626      4.965653
 1210.0    -17.798498     26.168084      2.628885      4.976548
 1215.0    -17.860740     26.326406      2.639133      4.987360
 1220.0    -17.922620     26.484747      2.649370      4.998090
 1225.0    -17.984147     26.643112      2.659596      5.008738
 1230.0    -18.045331     26.801501      2.669810      5.019307
 1235.0    -18.106181     26.959920      2.680013      5.029796
 1240.0    -18.166707     27.118369      2.690204      5.040207
 1245.0    -18.226919     27.276853      2.700383      5.050543
 1250.0    -18.286825     27.435373      2.710550      5.060802
 1255.0    -18.346436     27.593933      2.720705      5.070988
 1260.0    -18.405760     27.752536      2.730848      5.081100
 1265.0    -18.464808     27.911183      2.740979      5.091141
 1270.0    -18.523588     28.069879      2.751097      5.101111
 1275.0    -18.582112     28.228625      2.761202      5.111011
 1280.0    -18.640387     28.387425      2.771295      5.120843
 1285.0    -18.698423     28.546282      2.781375      5.130608
 1290.0    -18.756230     28.705198      2.791441      5.140307
 1295.0    -18.813818     28.864176      2.801495      5.149942
 1300.0    -18.871196     29.023219      2.811536      5.159512
 1305.0    -18.928373     29.182329      2.821563      5.169021
 1310.0    -18.985360     29.341510      2.831576      5.178468
 1315.0    -19.042165     29.500764      2.841576      5.187855
 1320.0    -19.098798     29.660095      2.851562      5.197183
 1325.0    -19.155268     29.819504      2.861534      5.206453
 1330.0    -19.211586     29.978995      2.871492      5.215667
 1335.0    -19.267760     30.138570      2.881436      5.224825
 1340.0    -19.323800     30.298233      2.891366      5.233930
 1345.0    -19.379716     30.457986      2.901281      5.242981
 1350.0    -19.435517     30.617832      2.911182      5.251980
 1355.0    -19.491212     30.777773      2.921068      5.260929
 1360.0    -19.546812     30.937813      2.930939      5.269828
 1365.0    -19.602326     31.097955      2.940795      5.278679
 1370.0    -19.657762     31.258200      2.950636      5.287483
 1375.0    -19.713132     31.418553      2.960462      5.296241
 1380.0    -19.768443     31.579015      2.970272      5.304954
 1385.0    -19.823707     31.739590      2.980067      5.313624
 1390.0    -19.878931     31.900280      2.989847      5.322251
 1395.0    -19.934126     32.061088      2.999610      5.330837
 1400.0    -19.989302     32.222017      3.009358      5.339383
 1405.0    -20.044467     32.383070      3.019090      5.347890
 1410.0    -20.099632     32.544250      3.028805      5.356359
 1415.0    -20.154805     32.705559      3.038505      5.364792
 1420.0    -20.209997     32.867000      3.048188      5.373190
 1425.0    -20.265217     33.028577      3.057854      5.381553
 1430.0    -20.320474     33.190291      3.067504      5.389883
 1435.0    -20.375778     33.352145      3.077137      5.398182
 1440.0    -20.431138     33.514143      3.086753      5.406450
 1445.0    -20.486564     33.676288      3.096352      5.414688
 1450.0    -20.542066     33.838581      3.105934      5.422898
 1455.0    -20.597653     34.001026      3.115498      5.431081
 1460.0    -20.653334     34.163626      3.125045      5.439239
 1465.0    -20.709118     34.326383      3.134574      5.447371
 1470.0    -20.765017     34.489301      3.144086      5.455480
 1475.0    -20.821038     34.652381      3.153580      5.463566
 1480.0    -20.877192     34.815627      3.163056      5.471631
 1485.0    -20.933488     34.979042      3.172514      5.479676
 1490.0    -20.989936     35.142629      3.181954      5.487703
 1495.0    -21.046544     35.306390      3.191375      5.495711
 1500.0    -21.103324     35.470328      3.200778      5.503703
 1505.0    -21.160283     35.634445      3.210162      5.511680
 1510.0    -21.217432     35.798746      3.219527      5.519643
 1515.0    -21.274780     35.963232      3.228874      5.527592
 1520.0    -21.332336     36.127906      3.238201      5.535530
 1525.0    -21.390111     36.292771      3.247510      5.543458
 1530.0    -21.448113     36.457830      3.256799      5.551375
 1535.0    -21.506353     36.623086      3.266068      5.559285
 1540.0    -21.564839     36.788542      3.275318      5.567187
 1545.0    -21.623581     36.954200      3.284549      5.575084
 1550.0    -21.682590     37.120062      3.293760      5.582976
 1555.0    -21.741873     37.286133      3.302950      5.590864
 1560.0    -21.801441     37.452415      3.312121      5.598750
 1565.0    -21.861303     37.618910      3.321272      5.606634
 1570.0    -21.921470     37.785622      3.330402      5.614519
 1575.0    -21.981949     37.952552      3.339512      5.622405
 1580.0    -22.042751     38.119705      3.348601      5.630293
 1585.0    -22.103886     38.287082      3.357669      5.638184
 1590.0    -22.165362     38.454687      3.366717      5.646081
 1595.0    -22.227190     38.622522      3.375743      5.653983
 1600.0    -22.289379     38.790591      3.384749      5.661892
 1605.0    -22.351938     38.958895      3.393733      5.669810
 1610.0    -22.414876     39.127439      3.402696      5.677736
 1615.0    -22.478205     39.296224      3.411637      5.685674
 1620.0    -22.541932     39.465253      3.420557      5.693623
 1625.0    -22.606067     39.634529      3.429455      5.701585
 1630.0    -22.670621     39.804056      3.438331      5.709561
 1635.0    -22.735602     39.973835      3.447186      5.717553
 1640.0    -22.801020     40.143870      3.456017      5.725561
 1645.0    -22.866885     40.314163      3.464827      5.733586
 1650.0    -22.933205     40.484718      3.473614      5.741630
 1655.0    -22.999991     40.655537      3.482379      5.749695
 1660.0    -23.067252     40.826622      3.491121      5.757780
 1665.0    -23.134998     40.997977      3.499841      5.765888
 1670.0    -23.203238     41.169605      3.508537      5.774020
 1675.0    -23.271981     41.341508      3.517210      5.782176
 1680.0    -23.341237     41.513689      3.525860      5.790358
 1685.0    -23.411016     41.686150      3.534487      5.798567
 1690.0    -23.481327     41.858896      3.543090      5.806804
 1695.0    -23.552180     42.031928      3.551670      5.815071
 1700.0    -23.623584     42.205249      3.560226      5.823368
 1705.0    -23.695549     42.378862      3.568758      5.831697
 1710.0    -23.768084     42.552771      3.577266      5.840059
 1715.0    -23.841198     42.726976      3.585750      5.848455
 1720.0    -23.914902     42.901483      3.594210      5.856886
 1725.0    -23.989204     43.076293      3.602645      5.865354
 1730.0    -24.064115     43.251408      3.611056      5.873860
 1735.0    -24.139643     43.426833      3.619443      5.882404
 1740.0    -24.215799     43.602570      3.627804      5.890989
 1745.0    -24.292591     43.778621      3.636141      5.899614
 1750.0    -24.370030     43.954989      3.644452      5.908282
 1755.0    -24.448125     44.131678      3.652739      5.916993
 1760.0    -24.526885     44.308689      3.661000      5.925750
 1765.0    -24.606319     44.486026      3.669236      5.934552
 1770.0    -24.686439     44.663692      3.677446      5.943401
 1775.0    -24.767252     44.841689      3.685630      5.952298
 1780.0    -24.848768     45.020021      3.693789      5.961245
 1785.0    -24.930997     45.198689      3.701922      5.970242
 1790.0    -25.013949     45.377697      3.710028      5.979291
 1795.0    -25.097633     45.557048      3.718109      5.988394
 1800.0    -25.182058     45.736744      3.726163      5.997550
 1805.0    -25.267234     45.916788      3.734191      6.006761
 1810.0    -25.353170     46.097183      3.742192      6.016029
 1815.0    -25.439877     46.277932      3.750166      6.025355
 1820.0    -25.527363     46.459038      3.758114      6.034740
 1825.0    -25.615638     46.640503      3.766034      6.044184
 1830.0    -25.704712     46.822330      3.773928      6.053690
 1835.0    -25.794593     47.004522      3.781794      6.063258
 1840.0    -25.885293     47.187083      3.789633      6.072890
 1845.0    -25.976819     47.370013      3.797444      6.082586
 1850.0    -26.069182     47.553318      3.805227      6.092349
 1855.0    -26.162391     47.736998      3.812983      6.102178
 1860.0    -26.256455     47.921058      3.820711      6.112076
 1865.0    -26.351385     48.105499      3.828411      6.122043
 1870.0    -26.447190     48.290325      3.836083      6.132081
 1875.0    -26.543878     48.475538      3.843726      6.142190
 1880.0    -26.641461     48.661142      3.851341      6.152373
 1885.0    -26.739946     48.847139      3.858928      6.162630
 1890.0    -26.839344     49.033532      3.866486      6.172962
 1895.0    -26.939665     49.220323      3.874015      6.183370
 1900.0    -27.040917     49.407516      3.881515      6.193856
 1905.0    -27.143110     49.595113      3.888986      6.204421
 1910.0    -27.246255     49.783118      3.896427      6.215067
 1915.0    -27.350359     49.971532      3.903840      6.225793
 1920.0    -27.455433     50.160359      3.911223      6.236602
 1925.0    -27.561487     50.349601      3.918576      6.247494
 1930.0    -27.668529     50.539262      3.925900      6.258471
 1935.0    -27.776570     50.729344      3.933193      6.269534
 1940.0    -27.885619     50.919850      3.940457      6.280684
 1945.0    -27.995685     51.110783      3.947691      6.291922
 1950.0    -28.106778     51.302145      3.954894      6.303250
 1955.0    -28.218907     51.493939      3.962067      6.314668
 1960.0    -28.332082     51.686169      3.969210      6.326178
 1965.0    -28.446313     51.878837      3.976322      6.337782
 1970.0    -28.561608     52.071945      3.983403      6.349479
 1975.0    -28.677979     52.265497      3.990453      6.361272
 1980.0    -28.795433     52.459495      3.997472      6.373161
 1985.0    -28.913980     52.653943      4.004460      6.385148
 1990.0    -29.033631     52.848842      4.011416      6.397234
 1995.0    -29.154394     53.044197      4.018342      6.409419
 2000.0    -29.276279     53.240009      4.025235      6.421707
 2005.0    -29.399295     53.436281      4.032097      6.434096
 2010.0    -29.523453     53.633016      4.038927      6.446589
 2015.0    -29.648761     53.830218      4.045725      6.459187
 2020.0    -29.775230     54.027888      4.052492      6.471891
 2025.0    -29.902868     54.226030      4.059225      6.484702
 2030.0    -30.031685     54.424647      4.065927      6.497621
 2035.0    -30.161691     54.623740      4.072596      6.510649
 2040.0    -30.292895     54.823314      4.079232      6.523789
 2045.0    -30.425306     55.023370      4.085836      6.537040
 2050.0    -30.558935     55.223913      4.092407      6.550404
 2055.0    -30.693790     55.424943      4.098945      6.563882
 2060.0    -30.829882     55.626465      4.105450      6.577476
 2065.0    -30.967220     55.828481      4.111921      6.591186
 2070.0    -31.105812     56.030994      4.118359      6.605014
 2075.0    -31.245670     56.234006      4.124764      6.618961
 2080.0    -31.386801     56.437521      4.131134      6.633027
 2085.0    -31.529217     56.641542      4.137472      6.647216
 2090.0    -31.672925     56.846070      4.143775      6.661526
 2095.0    -31.817937     57.051109      4.150044      6.675960
 2100.0    -31.964261     57.256662      4.156279      6.690519
 2105.0    -32.111907     57.462732      4.162480      6.705204
 2110.0    -32.260884     57.669321      4.168646      6.720016
 2115.0    -32.411202     57.876431      4.174777      6.734956
 2120.0    -32.562870     58.084067      4.180874      6.750026
 2125.0    -32.715898     58.292231      4.186936      6.765226
 2130.0    -32.870296     58.500925      4.192964      6.780559
 2135.0    -33.026073     58.710152      4.198956      6.796024
 2140.0    -33.183238     58.919916      4.204913      6.811623
 2145.0    -33.341801     59.130218      4.210834      6.827358
 2150.0    -33.501771     59.341063      4.216720      6.843230
 2155.0    -33.663159     59.552451      4.222570      6.859239
 2160.0    -33.825973     59.764388      4.228385      6.875387
 2165.0    -33.990223     59.976874      4.234164      6.891675
 2170.0    -34.155918     60.189913      4.239907      6.908104
 2175.0    -34.323069     60.403508      4.245613      6.924676
 2180.0    -34.491684     60.617662      4.251284      6.941391
 2185.0    -34.661773     60.832377      4.256918      6.958252
 2190.0    -34.833346     61.047657      4.262515      6.975258
 2195.0    -35.006412     61.263503      4.268076      6.992411
 2200.0    -35.180981     61.479919      4.273600      7.009713
 2205.0    -35.357061     61.696908      4.279087      7.027164
 2210.0    -35.534664     61.914472      4.284537      7.044766
 2215.0    -35.713797     62.132614      4.289950      7.062519
 2220.0    -35.894472     62.351338      4.295325      7.080426
 2225.0    -36.076696     62.570645      4.300663      7.098487
 2230.0    -36.260480     62.790539      4.305964      7.116703
 2235.0    -36.445833     63.011022      4.311227      7.135076
 2240.0    -36.632766     63.232097      4.316452      7.153607
 2245.0    -36.821286     63.453768      4.321639      7.172296
 2250.0    -37.011404     63.676036      4.326788      7.191146
 2255.0    -37.203129     63.898906      4.331898      7.210157
 2260.0    -37.396472     64.122378      4.336971      7.229330
 2265.0    -37.591440     64.346457      4.342005      7.248667
 2270.0    -37.788044     64.571145      4.347000      7.268169
 2275.0    -37.986294     64.796445      4.351956      7.287836
 2280.0    -38.186199     65.022359      4.356874      7.307671
 2285.0    -38.387767     65.248891      4.361752      7.327675
 2290.0    -38.591010     65.476044      4.366592      7.347847
 2295.0    -38.795936     65.703819      4.371392      7.368191
 2300.0    -39.002556     65.932220      4.376153      7.388706
 2305.0    -39.210877     66.161250      4.380874      7.409395
 2310.0    -39.420911     66.390912      4.385556      7.430257
 2315.0    -39.632666     66.621208      4.390197      7.451295
 2320.0    -39.846151     66.852141      4.394799      7.472510
 2325.0    -40.061378     67.083714      4.399361      7.493902
 2330.0    -40.278354     67.315929      4.403882      7.515473
 2335.0    -40.497090     67.548791      4.408364      7.537225
 2340.0    -40.717595     67.782300      4.412805      7.559157
 2345.0    -40.939879     68.016461      4.417205      7.581273
 2350.0    -41.163950     68.251276      4.421564      7.603571
 2355.0    -41.389819     68.486747      4.425883      7.626055
 2360.0    -41.617496     68.722878      4.430161      7.648725
 2365.0    -41.846989     68.959672      4.434397      7.671581
 2370.0    -42.078308     69.197130      4.438593      7.694626
 2375.0    -42.311462     69.435257      4.442747      7.717861
 2380.0    -42.546462     69.674054      4.446859      7.741286
 2385.0    -42.783316     69.913525      4.450930      7.764904
 2390.0    -43.022035     70.153673      4.454959      7.788714
 2395.0    -43.262627     70.394499      4.458946      7.812719
 2400.0    -43.505103     70.636008      4.462892      7.836919
 2405.0    -43.749471     70.878201      4.466795      7.861315
 2410.0    -43.995742     71.121082      4.470656      7.885909
 2415.0    -44.243924     71.364654      4.474474      7.910703
 2420.0    -44.494027     71.608918      4.478250      7.935696
 2425.0    -44.746062     71.853879      4.481983      7.960891
 2430.0    -45.000036     72.099539      4.485673      7.986288
 2435.0    -45.255961     72.345900      4.489321      8.011889
 2440.0    -45.513844     72.592966      4.492925      8.037694
 2445.0    -45.773697     72.840739      4.496486      8.063706
 2450.0    -46.035528     73.089222      4.500004      8.089925
 2455.0    -46.299347     73.338418      4.503479      8.116352
 2460.0    -46.565163     73.588329      4.506909      8.142989
 2465.0    -46.832986     73.838960      4.510296      8.169837
 2470.0    -47.102825     74.090311      4.513640      8.196896
 2475.0    -47.374691     74.342386      4.516939      8.224169
 2480.0    -47.648592     74.595189      4.520194      8.251655
