#Lambda        Dielectric Constant          Refractive Index
# [nm]        [Real]        [Imag]        [Real]        [Imag]
   10.0      0.762388      0.055057      0.877093      0.030652
   15.0      0.843706      0.095496      0.920000      0.051900
   20.0      0.756985      0.220463      0.879023      0.125414
   25.0      0.776787      0.442913      0.914033      0.242287
   30.0      0.927669      0.381856      0.982326      0.193040
   35.0      0.746316      0.335819      0.884495      0.189850
   40.0      0.673200      0.302400      0.840000      0.180000
   45.0      0.686768      0.177990      0.835459      0.106492
   50.0      0.618902      0.290133      0.807081      0.179646
   55.0      0.527206      0.410935      0.773318      0.265373
   60.0      0.353069      0.531209      0.703954      0.376616
   65.0      0.322703      0.628854      0.717520      0.438354
   70.0      0.393860      0.783363      0.797249      0.491530
   75.0      0.455377      0.872843      0.848491      0.514399
   80.0      0.511977      0.958098      0.893864      0.535783
   85.0      0.546457      1.091982      0.940246      0.580768
   90.0      0.579946      1.217579      0.981749      0.620093
   95.0      0.594565      1.353704      1.017989      0.664884
  100.0      0.515156      1.532015      1.033127      0.741452
  105.0      0.475972      1.644727      1.045741      0.786579
  110.0      0.548460      1.646126      1.068459      0.770751
  115.0      0.604399      1.652196      1.087243      0.759486
  120.0      0.592624      1.709080      1.096183      0.779218
  125.0      0.566313      1.770141      1.100896      0.804029
  130.0      0.560108      1.804482      1.105428      0.816447
  135.0      0.555154      1.827121      1.108981      0.823929
  140.0      0.526250      1.858635      1.110131      0.836990
  145.0      0.475952      1.899377      1.108478      0.856324
  150.0      0.439281      1.926047      1.104814      0.871142
  155.0      0.453100      1.914000      1.100000      0.870000
  160.0      0.533680      1.853713      1.094931      0.848052
  165.0      0.614914      1.796147      1.090642      0.826833
  170.0      0.610102      1.807385      1.088200      0.834471
  175.0      0.432543      1.953509      1.088674      0.899097
  180.0      0.001992      2.295598      1.093050      1.046702
  185.0     -0.657126      2.813612      1.100961      1.268613
  190.0     -1.435466      3.421692      1.110947      1.528031
  195.0     -2.221231      4.032081      1.121515      1.787349
  200.0     -2.902622      4.557022      1.131174      2.008954
  205.0     -3.367844      4.908758      1.138429      2.155239
  210.0     -3.538714      5.015957      1.140133      2.199731
  215.0     -3.631514      4.985691      1.126156      2.213606
  220.0     -3.685009      4.969926      1.118487      2.221702
  225.0     -3.612365      4.991885      1.129042      2.210681
  230.0     -3.580762      5.046090      1.141649      2.210009
  235.0     -3.538418      5.142956      1.162783      2.211442
  240.0     -3.453393      5.184313      1.178166      2.200302
  245.0     -3.277285      5.285096      1.212679      2.178990
  250.0     -3.289679      5.452337      1.240623      2.197405
  255.0     -3.184588      5.606087      1.277237      2.194679
  260.0     -3.240714      5.787564      1.302578      2.221745
  265.0     -3.624463      6.008251      1.302227      2.306755
  270.0     -3.798850      6.224146      1.321605      2.354837
  275.0     -4.037176      6.454369      1.337179      2.413518
  280.0     -4.245037      6.826249      1.377058      2.478239
  285.0     -4.463417      7.102776      1.401132      2.535031
  290.0     -4.689298      7.349005      1.419120      2.589074
  295.0     -4.883309      7.722643      1.458374      2.647673
  300.0     -5.076948      8.084325      1.494899      2.704012
  305.0     -5.277745      8.413446      1.525497      2.757671
  310.0     -5.462500      8.767200      1.560000      2.810000
  315.0     -5.599239      9.206873      1.608737      2.861377
  320.0     -5.704910      9.673440      1.662207      2.909944
  325.0     -5.802250     10.145200      1.715404      2.957174
  330.0     -5.901709     10.676114      1.774340      3.008282
  335.0     -5.977050     11.249296      1.838686      3.059052
  340.0     -6.000974     11.817540      1.904366      3.102936
  345.0     -6.022771     12.375366      1.967267      3.145276
  350.0     -6.073637     12.916791      2.024765      3.189448
  355.0     -6.077012     13.403151      2.078421      3.224439
  360.0     -5.985155     13.821924      2.130500      3.244182
  365.0     -5.869187     14.240115      2.183222      3.261227
  370.0     -5.786255     14.706267      2.237850      3.285384
  375.0     -5.685738     15.166364      2.292494      3.307743
  380.0     -5.511688     15.560561      2.344967      3.318308
  385.0     -5.313184     15.924355      2.395328      3.324356
  390.0     -5.174705     16.326789      2.444542      3.339105
  395.0     -5.081977     16.779768      2.494897      3.362260
  400.0     -4.921900     17.238000      2.550000      3.380000
  405.0     -4.619568     17.664246      2.611528      3.382600
  410.0     -4.270037     18.063437      2.673212      3.379058
  415.0     -4.009087     18.450972      2.726916      3.382889
  420.0     -3.871372     18.837792      2.771260      3.398205
  425.0     -3.737566     19.228056      2.815161      3.414795
  430.0     -3.480109     19.624935      2.868025      3.421625
  435.0     -3.079371     20.022038      2.930738      3.416447
  440.0     -2.623654     20.403408      2.995662      3.405787
  445.0     -2.204029     20.753007      3.054955      3.396416
  450.0     -1.851841     21.065213      3.105977      3.390682
  455.0     -1.528573     21.346580      3.152166      3.385769
  460.0     -1.191783     21.604356      3.197306      3.378568
  465.0     -0.813315     21.845102      3.244050      3.367158
  470.0     -0.400701     22.073673      3.292237      3.352574
  475.0      0.033044     22.294659      3.341270      3.336311
  480.0      0.475116     22.511683      3.390500      3.319756
  485.0      0.915638     22.714961      3.438553      3.302896
  490.0      1.346873     22.884913      3.483521      3.284684
  495.0      1.761130     23.001741      3.523486      3.264053
  500.0      2.151381     23.049158      3.556823      3.240159
  505.0      2.515169     23.035252      3.583944      3.213704
  510.0      2.851981     22.978436      3.606124      3.186046
  515.0      3.161305     22.897160      3.624640      3.158545
  520.0      3.442596     22.808832      3.640690      3.132487
  525.0      3.694905     22.719286      3.654583      3.108333
  530.0      3.917030     22.627152      3.666074      3.086031
  535.0      4.107765     22.530953      3.674911      3.065522
  540.0      4.265912     22.429216      3.680843      3.046746
  545.0      4.392008     22.321891      3.683864      3.029647
  550.0      4.490689     22.212285      3.684560      3.014179
  555.0      4.567180     22.104190      3.683598      3.000297
  560.0      4.626709     22.001398      3.681645      2.987956
  565.0      4.674466     21.907665      3.679364      2.977111
  570.0      4.712411     21.823507      3.676932      2.967671
  575.0      4.736723     21.743641      3.673660      2.959463
  580.0      4.742981     21.662181      3.668767      2.952307
  585.0      4.726762     21.573242      3.661474      2.946020
  590.0      4.683644     21.470938      3.650999      2.940423
  595.0      4.610717     21.351468      3.636833      2.935406
  600.0      4.512765     21.221632      3.619843      2.931218
  605.0      4.397009     21.091597      3.601334      2.928226
  610.0      4.270674     20.971531      3.582608      2.926795
  615.0      4.140986     20.871599      3.564971      2.927292
  620.0      4.015168     20.801970      3.549727      2.930081
  625.0      3.898614     20.769515      3.537801      2.935376
  630.0      3.789815     20.768691      3.528692      2.942822
  635.0      3.685642     20.791030      3.521565      2.951928
  640.0      3.582961     20.828066      3.515583      2.962203
  645.0      3.478641     20.871332      3.509910      2.973156
  650.0      3.369552     20.912360      3.503710      2.984296
  655.0      3.252690     20.942890      3.496171      2.995141
  660.0      3.128360     20.959857      3.487108      3.005408
  665.0      3.000342     20.965671      3.476992      3.015026
  670.0      2.872586     20.963005      3.466329      3.023932
  675.0      2.749039     20.954531      3.455622      3.032066
  680.0      2.633651     20.942920      3.445377      3.039366
  685.0      2.530369     20.930844      3.436097      3.045770
  690.0      2.443124     20.920970      3.428285      3.051217
  695.0      2.373667     20.915196      3.422214      3.055739
  700.0      2.319388     20.913887      3.417700      3.059549
  705.0      2.277159     20.917226      3.414506      3.062884
  710.0      2.243853     20.925396      3.412392      3.065979
  715.0      2.216344     20.938580      3.411120      3.069070
  720.0      2.191504     20.956961      3.410452      3.072393
  725.0      2.166207     20.980722      3.410150      3.076185
  730.0      2.137326     21.010047      3.409974      3.080680
  735.0      2.102964     21.044972      3.409775      3.086016
  740.0      2.064465     21.085149      3.409632      3.092065
  745.0      2.023703     21.130167      3.409663      3.098658
  750.0      1.982554     21.179615      3.409985      3.105625
  755.0      1.942891     21.233083      3.410716      3.112795
  760.0      1.906590     21.290160      3.411974      3.120000
  765.0      1.875525     21.350433      3.413875      3.127069
  770.0      1.851570     21.413494      3.416538      3.133832
  775.0      1.836601     21.478929      3.420080      3.140120
  780.0      1.831793     21.546209      3.424556      3.145804
  785.0      1.835688     21.614350      3.429779      3.150915
  790.0      1.846210     21.682261      3.435509      3.155517
  795.0      1.861281     21.748851      3.441503      3.159677
  800.0      1.878824     21.813030      3.447520      3.163462
  805.0      1.896762     21.873707      3.453318      3.166938
  810.0      1.913016     21.929793      3.458656      3.170170
  815.0      1.925512     21.980196      3.463291      3.173225
  820.0      1.932169     22.023826      3.466982      3.176170
  825.0      1.930913     22.059593      3.469488      3.179070
  830.0      1.919834     22.086527      3.470588      3.181990
  835.0      1.898908     22.104992      3.470307      3.184958
  840.0      1.869281     22.116183      3.468820      3.187986
  845.0      1.832114     22.121308      3.466305      3.191083
  850.0      1.788572     22.121575      3.462938      3.194258
  855.0      1.739819     22.118193      3.458899      3.197522
  860.0      1.687017     22.112368      3.454365      3.200885
  865.0      1.631329     22.105310      3.449513      3.204355
  870.0      1.573921     22.098225      3.444522      3.207943
  875.0      1.515953     22.092321      3.439568      3.211658
  880.0      1.458591     22.088807      3.434831      3.215511
  885.0      1.402997     22.088891      3.430486      3.219510
  890.0      1.350074     22.093585      3.426680      3.223670
  895.0      1.299222     22.102787      3.423360      3.228028
  900.0      1.249307     22.115993      3.420409      3.232632
  905.0      1.199194     22.132700      3.417707      3.237528
  910.0      1.147746     22.152406      3.415135      3.242762
  915.0      1.093829     22.174606      3.412573      3.248381
  920.0      1.036307     22.198800      3.409903      3.254431
  925.0      0.974045     22.224482      3.407004      3.260959
  930.0      0.905907     22.251151      3.403758      3.268012
  935.0      0.830758     22.278302      3.400045      3.275636
  940.0      0.747463     22.305434      3.395746      3.283877
  945.0      0.654885     22.332043      3.390742      3.292783
  950.0      0.551890     22.357625      3.384914      3.302399
  955.0      0.437349     22.381681      3.378142      3.312772
  960.0      0.310785     22.403905      3.370372      3.323916
  965.0      0.172961     22.424368      3.361666      3.335781
  970.0      0.024775     22.443181      3.352102      3.348312
  975.0     -0.132875     22.460455      3.341755      3.361452
  980.0     -0.299090     22.476301      3.330703      3.375147
  985.0     -0.472971     22.490831      3.319023      3.389341
  990.0     -0.653620     22.504155      3.306791      3.403977
  995.0     -0.840137     22.516385      3.294083      3.419001
 1000.0     -1.031626     22.527632      3.280977      3.434355
 1005.0     -1.227186     22.538007      3.267550      3.449986
 1010.0     -1.425919     22.547621      3.253877      3.465836
 1015.0     -1.626927     22.556586      3.240036      3.481851
 1020.0     -1.829311     22.565013      3.226103      3.497973
 1025.0     -2.032172     22.573012      3.212156      3.514149
 1030.0     -2.234612     22.580695      3.198270      3.530321
 1035.0     -2.435746     22.588174      3.184522      3.546436
 1040.0     -2.635239     22.595562      3.170949      3.562477
 1045.0     -2.833465     22.602980      3.157543      3.578482
 1050.0     -3.030849     22.610545      3.144290      3.594488
 1055.0     -3.227814     22.618377      3.131178      3.610535
 1060.0     -3.424784     22.626595      3.118192      3.626664
 1065.0     -3.622182     22.635319      3.105321      3.642912
 1070.0     -3.820431     22.644667      3.092550      3.659319
 1075.0     -4.019956     22.654759      3.079868      3.675924
 1080.0     -4.221180     22.665713      3.067261      3.692767
 1085.0     -4.424527     22.677650      3.054715      3.709887
 1090.0     -4.630419     22.690688      3.042219      3.727323
 1095.0     -4.839281     22.704947      3.029759      3.745114
 1100.0     -5.051536     22.720545      3.017321      3.763300
 1105.0     -5.267608     22.737601      3.004894      3.781921
 1110.0     -5.487920     22.756236      2.992463      3.801014
 1115.0     -5.712895     22.776567      2.980016      3.820620
 1120.0     -5.942958     22.798715      2.967540      3.840778
 1125.0     -6.178532     22.822798      2.955022      3.861526
 1130.0     -6.420009     22.848929      2.942450      3.882902
 1135.0     -6.667303     22.877122      2.929830      3.904896
 1140.0     -6.919962     22.907316      2.917182      3.927464
 1145.0     -7.177525     22.939447      2.904527      3.950561
 1150.0     -7.439529     22.973451      2.891885      3.974142
 1155.0     -7.705514     23.009264      2.879278      3.998162
 1160.0     -7.975016     23.046824      2.866724      4.022575
 1165.0     -8.247576     23.086067      2.854246      4.047338
 1170.0     -8.522730     23.126929      2.841863      4.072404
 1175.0     -8.800018     23.169346      2.829596      4.097728
 1180.0     -9.078977     23.213255      2.817465      4.123267
 1185.0     -9.359145     23.258593      2.805491      4.148974
 1190.0     -9.640062     23.305295      2.793694      4.174804
 1195.0     -9.921266     23.353299      2.782096      4.200714
 1200.0    -10.202293     23.402540      2.770716      4.226656
 1205.0    -10.482684     23.452955      2.759575      4.252587
 1210.0    -10.761976     23.504482      2.748693      4.278462
 1215.0    -11.039708     23.557055      2.738091      4.304235
 1220.0    -11.315418     23.610611      2.727790      4.329861
 1225.0    -11.588643     23.665087      2.717810      4.355296
 1230.0    -11.858923     23.720420      2.708171      4.380494
 1235.0    -12.125796     23.776545      2.698894      4.405410
 1240.0    -12.388800     23.833400      2.690000      4.430000
 1245.0    -12.647584     23.890932      2.681503      4.454228
 1250.0    -12.902238     23.949141      2.673397      4.478101
 1255.0    -13.152965     24.008036      2.665669      4.501635
 1260.0    -13.399966     24.067629      2.658307      4.524846
 1265.0    -13.643442     24.127929      2.651298      4.547752
 1270.0    -13.883595     24.188947      2.644630      4.570369
 1275.0    -14.120627     24.250693      2.638291      4.592713
 1280.0    -14.354739     24.313179      2.632268      4.614800
 1285.0    -14.586133     24.376415      2.626548      4.636648
 1290.0    -14.815009     24.440411      2.621120      4.658273
 1295.0    -15.041571     24.505177      2.615971      4.679691
 1300.0    -15.266018     24.570725      2.611088      4.700919
 1305.0    -15.488553     24.637064      2.606460      4.721974
 1310.0    -15.709378     24.704206      2.602073      4.742871
 1315.0    -15.928694     24.772160      2.597915      4.763627
 1320.0    -16.146701     24.840938      2.593974      4.784260
 1325.0    -16.363603     24.910549      2.590238      4.804785
 1330.0    -16.579600     24.981004      2.586694      4.825219
 1335.0    -16.794895     25.052315      2.583329      4.845578
 1340.0    -17.009687     25.124490      2.580132      4.865879
 1345.0    -17.224180     25.197541      2.577090      4.886139
 1350.0    -17.438574     25.271479      2.574189      4.906374
 1355.0    -17.653072     25.346313      2.571419      4.926600
 1360.0    -17.867874     25.422055      2.568767      4.946835
 1365.0    -18.083183     25.498715      2.566220      4.967094
 1370.0    -18.299199     25.576302      2.563765      4.987394
 1375.0    -18.516124     25.654829      2.561391      5.007751
 1380.0    -18.734159     25.734305      2.559085      5.028182
 1385.0    -18.953422     25.814741      2.556840      5.048697
 1390.0    -19.173929     25.896148      2.554657      5.069295
 1395.0    -19.395690     25.978538      2.552535      5.089976
 1400.0    -19.618715     26.061922      2.550475      5.110740
 1405.0    -19.843012     26.146310      2.548478      5.131585
 1410.0    -20.068590     26.231714      2.546544      5.152513
 1415.0    -20.295459     26.318145      2.544673      5.173522
 1420.0    -20.523628     26.405614      2.542867      5.194612
 1425.0    -20.753106     26.494133      2.541126      5.215782
 1430.0    -20.983903     26.583712      2.539449      5.237032
 1435.0    -21.216027     26.674363      2.537838      5.258363
 1440.0    -21.449488     26.766097      2.536293      5.279772
 1445.0    -21.684295     26.858925      2.534815      5.301260
 1450.0    -21.920457     26.952858      2.533403      5.322827
 1455.0    -22.157984     27.047907      2.532059      5.344472
 1460.0    -22.396884     27.144084      2.530784      5.366194
 1465.0    -22.637168     27.241400      2.529576      5.387994
 1470.0    -22.878843     27.339866      2.528438      5.409870
 1475.0    -23.121920     27.439492      2.527369      5.431823
 1480.0    -23.366407     27.540291      2.526370      5.453852
 1485.0    -23.612314     27.642273      2.525441      5.475956
 1490.0    -23.859651     27.745449      2.524584      5.498136
 1495.0    -24.108425     27.849832      2.523798      5.520390
 1500.0    -24.358647     27.955430      2.523083      5.542718
 1505.0    -24.610325     28.062257      2.522441      5.565121
 1510.0    -24.863469     28.170323      2.521872      5.587597
 1515.0    -25.118089     28.279640      2.521376      5.610146
 1520.0    -25.374192     28.390218      2.520954      5.632767
 1525.0    -25.631789     28.502068      2.520607      5.655461
 1530.0    -25.890889     28.615202      2.520334      5.678227
 1535.0    -26.151501     28.729631      2.520136      5.701064
 1540.0    -26.413634     28.845367      2.520014      5.723972
 1545.0    -26.677297     28.962419      2.519969      5.746951
 1550.0    -26.942500     29.080800      2.520000      5.770000
 1555.0    -27.209249     29.200511      2.520108      5.793118
 1560.0    -27.477538     29.321514      2.520290      5.816305
 1565.0    -27.747360     29.443762      2.520545      5.839557
 1570.0    -28.018707     29.567207      2.520868      5.862873
 1575.0    -28.291570     29.691802      2.521258      5.886250
 1580.0    -28.565942     29.817500      2.521712      5.909688
 1585.0    -28.841814     29.944254      2.522227      5.933184
 1590.0    -29.119178     30.072015      2.522801      5.956735
 1595.0    -29.398027     30.200738      2.523430      5.980341
 1600.0    -29.678351     30.330373      2.524113      6.003998
 1605.0    -29.960144     30.460875      2.524845      6.027705
 1610.0    -30.243397     30.592195      2.525626      6.051461
 1615.0    -30.528101     30.724286      2.526452      6.075262
 1620.0    -30.814249     30.857101      2.527320      6.099108
 1625.0    -31.101833     30.990592      2.528228      6.122995
 1630.0    -31.390845     31.124713      2.529173      6.146923
 1635.0    -31.681276     31.259415      2.530153      6.170889
 1640.0    -31.973119     31.394651      2.531164      6.194891
 1645.0    -32.266365     31.530375      2.532205      6.218927
 1650.0    -32.561007     31.666538      2.533271      6.242995
 1655.0    -32.857036     31.803093      2.534362      6.267094
 1660.0    -33.154444     31.939994      2.535473      6.291221
 1665.0    -33.453223     32.077192      2.536603      6.315374
 1670.0    -33.753365     32.214640      2.537748      6.339551
 1675.0    -34.054862     32.352290      2.538907      6.363751
 1680.0    -34.357707     32.490097      2.540075      6.387971
 1685.0    -34.661890     32.628011      2.541252      6.412209
 1690.0    -34.967403     32.765986      2.542433      6.436464
 1695.0    -35.274240     32.903974      2.543617      6.460733
 1700.0    -35.582391     33.041928      2.544800      6.485015
 1705.0    -35.891848     33.179801      2.545980      6.509307
 1710.0    -36.202604     33.317545      2.547154      6.533607
 1715.0    -36.514650     33.455113      2.548320      6.557914
 1720.0    -36.827979     33.592457      2.549475      6.582225
 1725.0    -37.142582     33.729531      2.550617      6.606539
 1730.0    -37.458451     33.866286      2.551741      6.630854
 1735.0    -37.775578     34.002676      2.552847      6.655167
 1740.0    -38.093955     34.138652      2.553931      6.679477
 1745.0    -38.413574     34.274169      2.554990      6.703781
 1750.0    -38.734427     34.409177      2.556022      6.728078
 1755.0    -39.056505     34.543631      2.557024      6.752365
 1760.0    -39.379802     34.677482      2.557994      6.776642
 1765.0    -39.704308     34.810683      2.558929      6.800905
 1770.0    -40.030015     34.943187      2.559825      6.825152
 1775.0    -40.356914     35.074954      2.560682      6.849383
 1780.0    -40.684975     35.206002      2.561500      6.873595
 1785.0    -41.014164     35.336373      2.562280      6.897787
 1790.0    -41.344445     35.466110      2.563026      6.921959
 1795.0    -41.675782     35.595257      2.563740      6.946108
 1800.0    -42.008139     35.723856      2.564424      6.970235
 1805.0    -42.341481     35.851950      2.565081      6.994337
 1810.0    -42.675771     35.979582      2.565712      7.018413
 1815.0    -43.010974     36.106796      2.566321      7.042463
 1820.0    -43.347054     36.233634      2.566909      7.066485
 1825.0    -43.683976     36.360138      2.567480      7.090479
 1830.0    -44.021703     36.486353      2.568034      7.114442
 1835.0    -44.360200     36.612321      2.568575      7.138375
 1840.0    -44.699431     36.738085      2.569105      7.162274
 1845.0    -45.039361     36.863688      2.569626      7.186141
 1850.0    -45.379953     36.989173      2.570141      7.209973
 1855.0    -45.721172     37.114583      2.570652      7.233769
 1860.0    -46.062982     37.239961      2.571161      7.257528
 1865.0    -46.405347     37.365350      2.571671      7.281250
 1870.0    -46.748232     37.490792      2.572183      7.304932
 1875.0    -47.091601     37.616332      2.572701      7.328573
 1880.0    -47.435417     37.742011      2.573227      7.352174
 1885.0    -47.779646     37.867873      2.573763      7.375731
 1890.0    -48.124251     37.993961      2.574311      7.399245
 1895.0    -48.469197     38.120318      2.574874      7.422714
 1900.0    -48.814448     38.246986      2.575454      7.446137
 1905.0    -49.159969     38.374009      2.576053      7.469513
 1910.0    -49.505722     38.501430      2.576674      7.492840
 1915.0    -49.851674     38.629291      2.577319      7.516118
 1920.0    -50.197787     38.757636      2.577991      7.539345
 1925.0    -50.544026     38.886508      2.578691      7.562521
 1930.0    -50.890356     39.015949      2.579422      7.585643
 1935.0    -51.236740     39.146003      2.580187      7.608711
 1940.0    -51.583144     39.276712      2.580988      7.631725
 1945.0    -51.929530     39.408119      2.581827      7.654682
 1950.0    -52.275864     39.540269      2.582706      7.677581
 1955.0    -52.622109     39.673202      2.583628      7.700422
 1960.0    -52.968230     39.806963      2.584596      7.723203
 1965.0    -53.314192     39.941594      2.585611      7.745922
 1970.0    -53.659957     40.077139      2.586675      7.768580
 1975.0    -54.005491     40.213640      2.587792      7.791175
 1980.0    -54.350758     40.351140      2.588964      7.813705
 1985.0    -54.695722     40.489682      2.590192      7.836170
 1990.0    -55.040347     40.629310      2.591480      7.858568
 1995.0    -55.384598     40.770066      2.592829      7.880898
 2000.0    -55.728438     40.911993      2.594242      7.903159
 2005.0    -56.071833     41.055134      2.595722      7.925350
 2010.0    -56.414745     41.199533      2.597270      7.947470
 2015.0    -56.757140     41.345231      2.598889      7.969518
 2020.0    -57.098982     41.492273      2.600581      7.991492
 2025.0    -57.440235     41.640701      2.602349      8.013391
 2030.0    -57.780862     41.790557      2.604195      8.035214
 2035.0    -58.120830     41.941886      2.606121      8.056961
 2040.0    -58.460100     42.094729      2.608130      8.078629
 2045.0    -58.798639     42.249131      2.610224      8.100218
 2050.0    -59.136410     42.405133      2.612405      8.121726
 2055.0    -59.473377     42.562780      2.614676      8.143153
 2060.0    -59.809505     42.722113      2.617039      8.164498
 2065.0    -60.144758     42.883176      2.619497      8.185758
 2070.0    -60.479105     43.046000      2.622051      8.206934
 2075.0    -60.812555     43.210524      2.624698      8.228025
 2080.0    -61.145135     43.376648      2.627434      8.249032
 2085.0    -61.476870     43.544272      2.630254      8.269956
 2090.0    -61.807789     43.713294      2.633153      8.290798
 2095.0    -62.137916     43.883615      2.636127      8.311559
 2100.0    -62.467278     44.055132      2.639172      8.332239
 2105.0    -62.795903     44.227746      2.642281      8.352840
 2110.0    -63.123815     44.401356      2.645452      8.373361
 2115.0    -63.451043     44.575861      2.648678      8.393805
 2120.0    -63.777612     44.751160      2.651956      8.414171
 2125.0    -64.103548     44.927153      2.655281      8.434461
 2130.0    -64.428878     45.103739      2.658648      8.454675
 2135.0    -64.753630     45.280817      2.662052      8.474814
 2140.0    -65.077828     45.458286      2.665489      8.494879
 2145.0    -65.401499     45.636047      2.668953      8.514871
 2150.0    -65.724671     45.813997      2.672442      8.534790
 2155.0    -66.047369     45.992036      2.675948      8.554638
 2160.0    -66.369620     46.170065      2.679469      8.574415
 2165.0    -66.691451     46.347981      2.682999      8.594122
 2170.0    -67.012887     46.525684      2.686534      8.613760
 2175.0    -67.333955     46.703073      2.690069      8.633330
 2180.0    -67.654683     46.880049      2.693599      8.652832
 2185.0    -67.975095     47.056509      2.697120      8.672267
 2190.0    -68.295219     47.232354      2.700626      8.691637
 2195.0    -68.615081     47.407482      2.704114      8.710941
 2200.0    -68.934708     47.581793      2.707579      8.730181
 2205.0    -69.254126     47.755186      2.711015      8.749357
 2210.0    -69.573361     47.927560      2.714419      8.768471
 2215.0    -69.892440     48.098815      2.717785      8.787523
 2220.0    -70.211390     48.268850      2.721109      8.806513
 2225.0    -70.530236     48.437565      2.724387      8.825444
 2230.0    -70.849006     48.604858      2.727613      8.844315
 2235.0    -71.167726     48.770628      2.730783      8.863127
 2240.0    -71.486422     48.934776      2.733892      8.881882
 2245.0    -71.805121     49.097200      2.736935      8.900580
 2250.0    -72.123848     49.257800      2.739909      8.919221
 2255.0    -72.442632     49.416474      2.742807      8.937807
 2260.0    -72.761497     49.573123      2.745626      8.956338
 2265.0    -73.080471     49.727645      2.748361      8.974816
 2270.0    -73.399580     49.879941      2.751007      8.993241
 2275.0    -73.718851     50.029908      2.753560      9.011613
 2280.0    -74.038309     50.177446      2.756014      9.029935
 2285.0    -74.357982     50.322455      2.758366      9.048205
 2290.0    -74.677896     50.464834      2.760609      9.066426
 2295.0    -74.998077     50.604482      2.762741      9.084598
 2300.0    -75.318552     50.741298      2.764756      9.102722
 2305.0    -75.639346     50.875183      2.766649      9.120799
 2310.0    -75.960488     51.006034      2.768416      9.138829
 2315.0    -76.282003     51.133751      2.770052      9.156814
 2320.0    -76.603917     51.258234      2.771553      9.174754
 2325.0    -76.926258     51.379382      2.772913      9.192649
 2330.0    -77.249051     51.497094      2.774128      9.210502
 2335.0    -77.572323     51.611270      2.775194      9.228312
 2340.0    -77.896100     51.721808      2.776105      9.246080
 2345.0    -78.220409     51.828608      2.776858      9.263808
 2350.0    -78.545277     51.931569      2.777446      9.281496
 2355.0    -78.870729     52.030591      2.777867      9.299144
 2360.0    -79.196793     52.125572      2.778114      9.316754
 2365.0    -79.523495     52.216413      2.778184      9.334327
 2370.0    -79.850860     52.303012      2.778071      9.351863
 2375.0    -80.178917     52.385269      2.777772      9.369363
 2380.0    -80.507690     52.463082      2.777280      9.386828
 2385.0    -80.837207     52.536352      2.776593      9.404258
 2390.0    -81.167494     52.604977      2.775704      9.421655
 2395.0    -81.498578     52.668858      2.774610      9.439020
 2400.0    -81.830484     52.727892      2.773305      9.456352
 2405.0    -82.163240     52.781979      2.771785      9.473654
 2410.0    -82.496872     52.831019      2.770045      9.490925
 2415.0    -82.831406     52.874911      2.768081      9.508167
 2420.0    -83.166869     52.913554      2.765888      9.525380
 2425.0    -83.503287     52.946848      2.763461      9.542565
 2430.0    -83.840687     52.974691      2.760796      9.559723
 2435.0    -84.179095     52.996983      2.757888      9.576856
 2440.0    -84.518537     53.013624      2.754731      9.593962
 2445.0    -84.859041     53.024512      2.751323      9.611045
 2450.0    -85.200632     53.029547      2.747657      9.628103
 2455.0    -85.543338     53.028628      2.743729      9.645138
 2460.0    -85.887183     53.021654      2.739535      9.662152
 2465.0    -86.232196     53.008526      2.735070      9.679144
 2470.0    -86.578402     52.989141      2.730329      9.696115
 2475.0    -86.925828     52.963399      2.725307      9.713067
 2480.0    -87.274500     52.931200      2.720000      9.730000
 2485.0    -87.624440     52.892478      2.714405      9.746915
 2490.0    -87.975651     52.847307      2.708525      9.763812
 2495.0    -88.328130     52.795796      2.702365      9.780693
 2500.0    -88.681876     52.738055      2.695930      9.797557
 2505.0    -89.036886     52.674193      2.689224      9.814406
 2510.0    -89.393159     52.604319      2.682254      9.831241
 2515.0    -89.750692     52.528542      2.675023      9.848061
 2520.0    -90.109482     52.446973      2.667536      9.864868
 2525.0    -90.469529     52.359720      2.659800      9.881662
 2530.0    -90.830829     52.266892      2.651817      9.898444
 2535.0    -91.193382     52.168599      2.643594      9.915214
 2540.0    -91.557184     52.064949      2.635136      9.931974
 2545.0    -91.922233     51.956053      2.626446      9.948723
 2550.0    -92.288528     51.842020      2.617531      9.965463
 2555.0    -92.656066     51.722959      2.608395      9.982194
 2560.0    -93.024846     51.598978      2.599042      9.998917
 2565.0    -93.394864     51.470189      2.589479     10.015633
 2570.0    -93.766120     51.336699      2.579709     10.032342
 2575.0    -94.138611     51.198618      2.569739     10.049044
 2580.0    -94.512334     51.056055      2.559571     10.065741
 2585.0    -94.887288     50.909120      2.549213     10.082434
 2590.0    -95.263471     50.757922      2.538668     10.099122
 2595.0    -95.640880     50.602570      2.527941     10.115806
 2600.0    -96.019514     50.443173      2.517038     10.132488
 2605.0    -96.399370     50.279842      2.505963     10.149167
 2610.0    -96.780447     50.112684      2.494722     10.165845
 2615.0    -97.162741     49.941810      2.483318     10.182523
 2620.0    -97.546252     49.767329      2.471757     10.199200
 2625.0    -97.930977     49.589349      2.460045     10.215877
 2630.0    -98.316913     49.407981      2.448185     10.232556
 2635.0    -98.704059     49.223333      2.436184     10.249236
 2640.0    -99.092413     49.035515      2.424044     10.265919
 2645.0    -99.481972     48.844636      2.411773     10.282605
 2650.0    -99.872735     48.650805      2.399374     10.299294
 2655.0   -100.264699     48.454133      2.386853     10.315988
 2660.0   -100.657862     48.254727      2.374214     10.332688
 2665.0   -101.052222     48.052697      2.361463     10.349392
 2670.0   -101.447778     47.848153      2.348604     10.366104
 2675.0   -101.844526     47.641204      2.335642     10.382822
 2680.0   -102.242465     47.431959      2.322582     10.399549
 2685.0   -102.641593     47.220528      2.309429     10.416283
 2690.0   -103.041908     47.007019      2.296188     10.433027
 2695.0   -103.443407     46.791542      2.282865     10.449780
 2700.0   -103.846088     46.574207      2.269462     10.466544
 2705.0   -104.249950     46.355122      2.255987     10.483319
 2710.0   -104.654990     46.134397      2.242444     10.500106
 2715.0   -105.061206     45.912141      2.228837     10.516905
 2720.0   -105.468596     45.688464      2.215171     10.533717
 2725.0   -105.877158     45.463474      2.201452     10.550543
 2730.0   -106.286890     45.237282      2.187684     10.567383
 2735.0   -106.697790     45.009995      2.173873     10.584238
 2740.0   -107.109855     44.781725      2.160023     10.601109
 2745.0   -107.523084     44.552579      2.146139     10.617996
 2750.0   -107.937474     44.322668      2.132226     10.634900
 2755.0   -108.353023     44.092100      2.118289     10.651822
 2760.0   -108.769730     43.860985      2.104332     10.668763
 2765.0   -109.187592     43.629432      2.090362     10.685722
 2770.0   -109.606606     43.397550      2.076383     10.702701
 2775.0   -110.026772     43.165450      2.062399     10.719700
 2780.0   -110.448087     42.933239      2.048415     10.736721
 2785.0   -110.870548     42.701027      2.034438     10.753762
 2790.0   -111.294154     42.468924      2.020470     10.770827
 2795.0   -111.718902     42.237038      2.006518     10.787914
 2800.0   -112.144791     42.005480      1.992587     10.805025
 2805.0   -112.571818     41.774358      1.978680     10.822160
 2810.0   -112.999981     41.543782      1.964804     10.839320
 2815.0   -113.429278     41.313861      1.950963     10.856506
 2820.0   -113.859708     41.084704      1.937161     10.873718
 2825.0   -114.291267     40.856421      1.923405     10.890957
 2830.0   -114.723954     40.629121      1.909698     10.908224
 2835.0   -115.157767     40.402912      1.896047     10.925519
 2840.0   -115.592703     40.177906      1.882454     10.942843
 2845.0   -116.028761     39.954210      1.868927     10.960196
 2850.0   -116.465938     39.731934      1.855469     10.977580
 2855.0   -116.904233     39.511187      1.842085     10.994995
 2860.0   -117.343642     39.292079      1.828781     11.012441
 2865.0   -117.784165     39.074719      1.815561     11.029920
 2870.0   -118.225799     38.859216      1.802430     11.047431
 2875.0   -118.668542     38.645679      1.789394     11.064976
 2880.0   -119.112391     38.434219      1.776456     11.082556
 2885.0   -119.557345     38.224943      1.763623     11.100170
 2890.0   -120.003402     38.017962      1.750898     11.117820
 2895.0   -120.450559     37.813384      1.738287     11.135506
 2900.0   -120.898815     37.611320      1.725795     11.153229
 2905.0   -121.348167     37.411877      1.713427     11.170989
 2910.0   -121.798613     37.215166      1.701187     11.188788
 2915.0   -122.250151     37.021296      1.689080     11.206625
 2920.0   -122.702779     36.830376      1.677113     11.224503
 2925.0   -123.156496     36.642515      1.665288     11.242420
 2930.0   -123.611297     36.457824      1.653612     11.260378
 2935.0   -124.067183     36.276410      1.642089     11.278378
 2940.0   -124.524150     36.098383      1.630724     11.296420
 2945.0   -124.982197     35.923853      1.619522     11.314504
 2950.0   -125.441321     35.752928      1.608488     11.332633
 2955.0   -125.901520     35.585719      1.597627     11.350805
 2960.0   -126.362792     35.422335      1.586944     11.369022
 2965.0   -126.825136     35.262884      1.576444     11.387285
 2970.0   -127.288548     35.107476      1.566131     11.405594
 2975.0   -127.753028     34.956220      1.556011     11.423950
 2980.0   -128.218572     34.809226      1.546088     11.442353
 2985.0   -128.685178     34.666602      1.536368     11.460804
 2990.0   -129.152846     34.528459      1.526855     11.479305
 2995.0   -129.621572     34.394906      1.517555     11.497854
 3000.0   -130.091354     34.266051      1.508471     11.516454
 3050.0   -134.846814     33.259978      1.430668     11.705356
 3100.0   -139.705600     32.844000      1.380000     11.900000
 3150.0   -144.664452     33.088157      1.359585     12.100707
 3200.0   -149.715470     33.905483      1.365311     12.306432
 3250.0   -154.849596     35.169763      1.391263     12.515788
 3300.0   -160.057771     36.754781      1.431523     12.727388
 3350.0   -165.330938     38.534319      1.480173     12.939845
 3400.0   -170.660037     40.382163      1.531296     13.151772
 3450.0   -176.036032     42.172299      1.578986     13.361785
 3500.0   -181.454674     43.821917      1.619345     13.569030
 3550.0   -186.922388     45.344597      1.652966     13.773843
 3600.0   -192.447046     46.766959      1.681046     13.976718
 3650.0   -198.036521     48.115624      1.704783     14.178149
 3700.0   -203.698682     49.417213      1.725377     14.378633
 3750.0   -209.441401     50.698349      1.744025     14.578662
 3800.0   -215.272551     51.985651      1.761927     14.778733
 3850.0   -221.200002     53.305741      1.780280     14.979341
 3900.0   -227.231366     54.684706      1.800256     15.180965
 3950.0   -233.368284     56.136372      1.822414     15.383769
 4000.0   -239.606425     57.662301      1.846700     15.587599
 4050.0   -245.941201     59.263521      1.873033     15.792284
 4100.0   -252.368020     60.941061      1.901332     15.997657
 4150.0   -258.882293     62.695950      1.931517     16.203549
 4200.0   -265.479431     64.529216      1.963505     16.409790
 4250.0   -272.154843     66.441888      1.997216     16.616212
 4300.0   -278.903939     68.434995      2.032570     16.822645
 4350.0   -285.722130     70.509566      2.069486     17.028922
 4400.0   -292.604826     72.666629      2.107882     17.234873
 4450.0   -299.547493     74.907155      2.147677     17.440331
 4500.0   -306.547369     77.230338      2.188789     17.645208
 4550.0   -313.603760     79.633287      2.231131     17.849500
 4600.0   -320.716090     82.112996      2.274618     18.053213
 4650.0   -327.883783     84.666457      2.319162     18.256350
 4700.0   -335.106262     87.290664      2.364678     18.458914
 4750.0   -342.382953     89.982608      2.411080     18.660910
 4800.0   -349.713278     92.739284      2.458282     18.862342
 4850.0   -357.096661     95.557683      2.506197     19.063214
 4900.0   -364.532527     98.434799      2.554740     19.263528
 4950.0   -372.020300    101.367625      2.603824     19.463290
 5000.0   -379.559403    104.353152      2.653363     19.662502
 5050.0   -387.149260    107.388375      2.703271     19.861170
 5100.0   -394.789296    110.470285      2.753461     20.059296
 5150.0   -402.478934    113.595877      2.803849     20.256885
 5200.0   -410.217636    116.762341      2.854352     20.453940
 5250.0   -418.005278    119.969089      2.904947     20.650473
 5300.0   -425.841999    123.216906      2.955648     20.846496
 5350.0   -433.727938    126.506603      3.006466     21.042025
 5400.0   -441.663236    129.838990      3.057416     21.237073
 5450.0   -449.648032    133.214873      3.108509     21.431653
 5500.0   -457.682469    136.635064      3.159760     21.625780
 5550.0   -465.766685    140.100371      3.211181     21.819468
 5600.0   -473.900822    143.611603      3.262786     22.012731
 5650.0   -482.085020    147.169569      3.314587     22.205582
 5700.0   -490.319419    150.775079      3.366597     22.398036
 5750.0   -498.604160    154.428941      3.418830     22.590106
 5800.0   -506.939384    158.131965      3.471299     22.781807
 5850.0   -515.325230    161.884959      3.524016     22.973152
 5900.0   -523.761839    165.688733      3.576995     23.164156
 5950.0   -532.249352    169.544095      3.630250     23.354831
 6000.0   -540.787910    173.451856      3.683791     23.545193
 6050.0   -549.377652    177.412823      3.737634     23.735256
 6100.0   -558.018719    181.427807      3.791791     23.925032
 6150.0   -566.711251    185.497616      3.846276     24.114536
 6200.0   -575.455389    189.623059      3.901100     24.303782
 6250.0   -584.251126    193.804844      3.956275     24.492782
 6300.0   -593.097892    198.043297      4.011802     24.681533
 6350.0   -601.994990    202.338652      4.067681     24.870035
 6400.0   -610.941719    206.691145      4.123910     25.058282
 6450.0   -619.937380    211.101011      4.180488     25.246272
 6500.0   -628.981274    215.568486      4.237415     25.434003
 6550.0   -638.072702    220.093805      4.294690     25.621470
 6600.0   -647.210964    224.677203      4.352311     25.808671
 6650.0   -656.395361    229.318915      4.410279     25.995602
 6700.0   -665.625193    234.019178      4.468591     26.182261
 6750.0   -674.899762    238.778226      4.527248     26.368644
 6800.0   -684.218367    243.596294      4.586248     26.554749
 6850.0   -693.580310    248.473619      4.645591     26.740571
 6900.0   -702.984891    253.410434      4.705275     26.926109
 6950.0   -712.431411    258.406977      4.765299     27.111358
 7000.0   -721.919171    263.463481      4.825664     27.296316
 7050.0   -731.447470    268.580182      4.886367     27.480979
 7100.0   -741.015610    273.757317      4.947409     27.665345
 7150.0   -750.622892    278.995119      5.008788     27.849411
 7200.0   -760.268616    284.293824      5.070503     28.033172
 7250.0   -769.952083    289.653668      5.132553     28.216626
 7300.0   -779.672593    295.074886      5.194938     28.399771
 7350.0   -789.429447    300.557714      5.257656     28.582602
 7400.0   -799.221946    306.102385      5.320708     28.765117
 7450.0   -809.049390    311.709137      5.384091     28.947312
 7500.0   -818.911080    317.378205      5.447805     29.129185
 7550.0   -828.806317    323.109823      5.511849     29.310732
 7600.0   -838.734402    328.904226      5.576223     29.491950
 7650.0   -848.694634    334.761652      5.640925     29.672837
 7700.0   -858.686315    340.682333      5.705954     29.853388
 7750.0   -868.708745    346.666507      5.771310     30.033601
 7800.0   -878.761361    352.714361      5.836992     30.213474
 7850.0   -888.844110    358.825906      5.902995     30.393010
 7900.0   -898.957060    365.001110      5.969318     30.572214
 7950.0   -909.100278    371.239943      6.035957     30.751089
 8000.0   -919.273831    377.542373      6.102908     30.929641
 8050.0   -929.477788    383.908369      6.170168     31.107874
 8100.0   -939.712216    390.337900      6.237734     31.285792
 8150.0   -949.977182    396.830934      6.305602     31.463399
 8200.0   -960.272754    403.387441      6.373770     31.640701
 8250.0   -970.599000    410.007388      6.442234     31.817700
 8300.0   -980.955988    416.690746      6.510990     31.994402
 8350.0   -991.343784    423.437483      6.580036     32.170811
 8400.0  -1001.762457    430.247567      6.649368     32.346932
 8450.0  -1012.212075    437.120968      6.718982     32.522769
 8500.0  -1022.692704    444.057654      6.788876     32.698325
 8550.0  -1033.204412    451.057593      6.859046     32.873606
 8600.0  -1043.747267    458.120756      6.929489     33.048617
 8650.0  -1054.321337    465.247110      7.000201     33.223360
 8700.0  -1064.926689    472.436625      7.071180     33.397841
 8750.0  -1075.563391    479.689268      7.142421     33.572065
 8800.0  -1086.231510    487.005010      7.213922     33.746035
 8850.0  -1096.931114    494.383818      7.285680     33.919756
 8900.0  -1107.662271    501.825663      7.357690     34.093232
 8950.0  -1118.425048    509.330511      7.429950     34.266468
 9000.0  -1129.219513    516.898333      7.502456     34.439467
 9050.0  -1140.045733    524.529096      7.575205     34.612236
 9100.0  -1150.903776    532.222771      7.648195     34.784777
 9150.0  -1161.793710    539.979325      7.721420     34.957095
 9200.0  -1172.715601    547.798727      7.794879     35.129195
 9250.0  -1183.669519    555.680947      7.868568     35.301081
 9300.0  -1194.655530    563.625952      7.942483     35.472757
 9350.0  -1205.673702    571.633712      8.016621     35.644228
 9400.0  -1216.724103    579.704196      8.090980     35.815498
 9450.0  -1227.806800    587.837373      8.165555     35.986572
 9500.0  -1238.921861    596.033210      8.240343     36.157454
 9550.0  -1250.069353    604.291678      8.315341     36.328148
 9600.0  -1261.249344    612.612744      8.390546     36.498658
 9650.0  -1272.461901    620.996378      8.465955     36.668990
 9700.0  -1283.707093    629.442548      8.541564     36.839147
 9750.0  -1294.984987    637.951223      8.617369     37.009134
 9800.0  -1306.295650    646.522373      8.693368     37.178955
 9850.0  -1317.639151    655.155965      8.769557     37.348615
 9900.0  -1329.015555    663.851968      8.845933     37.518118
 9950.0  -1340.424932    672.610353      8.922493     37.687468
10000.0  -1351.867349    681.431086      8.999233     37.856670
10050.0  -1363.342874    690.314137      9.076149     38.025728
10100.0  -1374.851573    699.259475      9.153240     38.194646
10150.0  -1386.393515    708.267069      9.230501     38.363430
10200.0  -1397.968767    717.336887      9.307929     38.532083
10250.0  -1409.577397    726.468898      9.385521     38.700609
10300.0  -1421.219473    735.663071      9.463273     38.869014
10350.0  -1432.895061    744.919375      9.541182     39.037301
10400.0  -1444.604230    754.237779      9.619246     39.205475
10450.0  -1456.347048    763.618251      9.697459     39.373540
10500.0  -1468.123581    773.060760      9.775820     39.541501
10550.0  -1479.933898    782.565275      9.854325     39.709362
10600.0  -1491.778066    792.131765      9.932971     39.877127
10650.0  -1503.656152    801.760198     10.011754     40.044801
10700.0  -1515.568225    811.450544     10.090671     40.212388
10750.0  -1527.514351    821.202771     10.169719     40.379893
10800.0  -1539.494599    831.016848     10.248894     40.547320
10850.0  -1551.509037    840.892744     10.328193     40.714673
10900.0  -1563.557730    850.830427     10.407613     40.881956
10950.0  -1575.640748    860.829867     10.487151     41.049175
11000.0  -1587.758158    870.891032     10.566802     41.216333
11050.0  -1599.910028    881.013891     10.646565     41.383436
11100.0  -1612.096424    891.198412     10.726435     41.550486
11150.0  -1624.317415    901.444566     10.806410     41.717489
11200.0  -1636.573069    911.752319     10.886485     41.884449
11250.0  -1648.863452    922.121642     10.966658     42.051370
11300.0  -1661.188633    932.552503     11.046926     42.218258
11350.0  -1673.548679    943.044871     11.127284     42.385115
11400.0  -1685.943657    953.598714     11.207731     42.551947
11450.0  -1698.373636    964.214001     11.288262     42.718758
11500.0  -1710.838683    974.890702     11.368874     42.885552
11550.0  -1723.338865    985.628785     11.449563     43.052334
11600.0  -1735.874250    996.428218     11.530328     43.219109
11650.0  -1748.444906   1007.288971     11.611163     43.385879
11700.0  -1761.050901   1018.211013     11.692067     43.552651
11750.0  -1773.692301   1029.194311     11.773035     43.719427
11800.0  -1786.369175   1040.238836     11.854065     43.886214
11850.0  -1799.081589   1051.344555     11.935152     44.053014
11900.0  -1811.829613   1062.511438     12.016295     44.219833
11950.0  -1824.613313   1073.739453     12.097488     44.386675
12000.0  -1837.432757   1085.028570     12.178730     44.553544
12050.0  -1850.288012   1096.378756     12.260017     44.720444
12100.0  -1863.179146   1107.789981     12.341345     44.887381
12150.0  -1876.106227   1119.262214     12.422711     45.054357
12200.0  -1889.069323   1130.795423     12.504112     45.221379
12250.0  -1902.068500   1142.389578     12.585545     45.388450
12300.0  -1915.103827   1154.044646     12.667006     45.555574
12350.0  -1928.175371   1165.760597     12.748492     45.722756
12400.0  -1941.283200   1177.537400     12.830000     45.890000
